n v(n)    Re(T)       Im(T)        Mod(T) 
   
0  0  388142.0  0.0  388142.0  
1  0  764.2802  1309.8325  1516.5044  
2  0  -1861.0261  -2213.4282  2891.8303  
3  0  -1670.3134  1446.344  2209.4927  
4  0  -84.76129  -1088.7941  1092.0884  
5  957  -2029.2589  -355.40744  2060.147  
6  956  -744.4771  -119.17285  753.95514  
7  956  -1139.598  -687.2805  1330.8036  
8  956  -1216.474  -542.8745  1332.1118  
9  956  -1035.4045  -451.7192  1129.6516  
10  955  -1029.2208  -842.3749  1329.9966  
11  957  -1180.6814  -656.66736  1351.0072  
12  956  -910.2907  -872.29193  1260.7626  
13  956  -977.8187  -1098.2251  1470.4515  
14  954  -1301.7788  -1058.9279  1678.0812  
15  0  -376.59167  -912.566  987.2173  
16  0  -1286.7004  -2510.0898  2820.6646  
17  0  -1291.9056  -316.00867  1329.993  
18  0  735.17377  -3579.8013  3654.512  
19  0  -2941.5051  -3434.3252  4521.8403  
20  0  2166.8862  -8036.3447  8323.3545  
21  0  -2940.7751  6159.681  6825.6743  
22  0  -1793.2152  4520.423  4863.1104  
23  0  443.11273  -221.93568  495.58484  
24  956  -2528.2559  648.9068  2610.2026  
25  956  7.4032497  804.04297  804.0771  
26  956  -1154.642  -609.6619  1305.7128  
27  956  -995.8043  214.74306  1018.6956  
28  956  -728.755  -230.60226  764.3698  
29  955  -838.8195  -425.40094  940.5233  
30  956  -942.9792  -260.08493  978.1891  
31  955  -686.40344  -438.9012  814.72943  
32  955  -1038.6257  -526.9637  1164.6605  
33  956  -924.4852  -444.35764  1025.7322  
34  0  -771.88367  -535.7666  939.60114  
35  0  -1292.1952  -1092.6549  1692.2361  
36  0  -1411.3279  139.03423  1418.1597  
37  0  -530.0924  -1677.2522  1759.0261  
38  0  -3712.8127  -742.60834  3786.3499  
39  0  -1029.992  -137.23953  1039.0948  
40  0  -6792.042  -4081.7593  7924.1777  
41  0  -236212.23  -56183.87  242802.08  
42  0  8216.119  -526.2821  8232.958  
43  0  1214.116  709.6088  1406.2795  
44  956  3938.1335  1024.997  4069.3384  
45  956  1286.4402  -1106.1466  1696.611  
46  956  1451.5712  951.84534  1735.8192  
47  955  1811.3094  -296.01547  1835.3385  
48  956  1090.8699  17.807688  1091.0153  
49  956  1209.0802  153.55536  1218.7921  
50  956  1305.2756  73.58056  1307.3479  
51  956  960.7947  55.093647  962.373  
52  957  1145.8243  309.67438  1186.9337  
53  954  1049.4557  136.23495  1058.2615  
54  0  883.5741  282.00635  927.48627  
55  0  935.18256  760.1606  1205.1599  
56  0  1365.1802  85.14736  1367.833  
57  0  -231.2464  931.9248  960.1868  
58  0  2139.7834  1697.4312  2731.29  
59  0  -326.94778  -254.56305  414.36362  
60  0  -55.061497  4778.826  4779.1436  
61  0  167.88347  5383.029  5385.646  
62  0  1949.4028  -7811.346  8050.9194  
63  956  4304.6567  -1544.4329  4573.3296  
64  956  779.5752  -3114.4395  3210.525  
65  956  1415.7817  693.3081  1576.4244  
66  956  2214.0046  -1432.4808  2637.0093  
67  957  703.55066  -267.11334  752.551  
68  956  1648.1934  -83.30146  1650.2971  
69  956  1293.0242  -261.30164  1319.1626  
70  956  1149.2686  -62.167744  1150.9489  
71  956  1256.7174  180.58826  1269.6262  
72  955  1195.0472  -39.971527  1195.7156  
73  0  1082.7184  313.99826  1127.3304  
74  0  1213.7383  304.00183  1251.2305  
75  0  1150.0468  139.70053  1158.5006  
76  0  565.05444  527.3112  772.88007  
77  0  1791.9827  765.44946  1948.6188  
78  0  255.76764  -635.24475  684.80145  
79  0  755.40936  2262.8892  2385.647  
80  0  2157.2659  -1087.0924  2415.6917  
81  0  -1762.9602  1102.9099  2079.5286  
82  0  -5399.549  -2835.0266  6098.566  
83  955  29.224243  -914.6998  915.16656  
84  955  946.49316  3190.9607  3328.3748  
85  955  2019.2479  -389.7784  2056.5237  
86  955  -477.64566  1405.7421  1484.6737  
87  955  1604.7828  1386.5903  2120.8396  
88  955  422.50534  662.2842  785.57697  
89  955  575.6982  1365.4572  1481.8575  
90  955  684.89294  1222.697  1401.4515  
91  955  523.3217  1078.3469  1198.6233  
92  954  362.1201  1408.7241  1454.5221  
93  0  539.36163  1286.1439  1394.6603  
94  0  213.66347  1364.5004  1381.1276  
95  0  178.2483  1581.2815  1591.2963  
96  0  461.72104  1649.9669  1713.3525  
97  0  -366.75427  1161.0417  1217.5906  
98  0  -130.93149  2937.8242  2940.7405  
99  0  606.27905  896.76685  1082.481  
100  0  -2514.2305  3166.8477  4043.5479  
101  0  806.9037  4285.346  4360.652  
102  955  -5998.0317  6138.2095  8582.19  
103  955  6587.8096  -5558.3853  8619.448  
104  955  3459.3184  -3606.7822  4997.5757  
105  955  -576.3217  74.93223  581.17255  
106  956  2488.203  309.61786  2507.3923  
107  955  91.102875  -766.02997  771.42834  
108  955  657.5897  1008.055  1203.5776  
109  956  776.88635  138.34541  789.1082  
110  955  360.7737  462.6958  586.724  
111  954  376.0523  666.0042  764.8379  
112  0  562.9869  575.73004  805.2449  
113  0  218.77519  623.02893  660.3239  
114  0  473.841  823.3742  949.98444  
115  0  420.24503  680.6044  799.89264  
116  0  269.23248  736.8769  784.5213  
117  0  543.99744  1399.6982  1501.6951  
118  0  1065.8722  327.51685  1115.0564  
119  0  -409.81012  1700.5999  1749.281  
120  0  2802.5332  1996.7673  3441.115  
121  0  459.69693  512.90875  688.7646  
122  955  4002.703  6361.246  7515.7886  
123  955  61028.152  51393.387  79785.44  
124  955  -7788.82  -3491.399  8535.548  
125  955  -813.32916  -1655.5752  1844.5686  
126  954  -3297.2935  -2829.3518  4344.81  
127  955  -1592.2549  203.9881  1605.2684  
128  955  -983.6756  -1779.4631  2033.2502  
129  955  -1797.8965  -695.64026  1927.783  
130  954  -980.0646  -733.408  1224.0972  
131  955  -1068.3167  -902.58374  1398.5557  
132  0  -1160.4202  -833.099  1428.5059  
133  0  -854.3142  -688.35675  1097.1271  
134  0  -911.4998  -991.89087  1347.1005  
135  0  -883.87854  -785.6082  1182.5487  
136  0  -665.41284  -854.4698  1083.0018  
137  0  -533.80615  -1293.0739  1398.9242  
138  0  -1128.0635  -790.3153  1377.3618  
139  0  637.1632  -978.5491  1167.7051  
140  0  -1260.7627  -2484.0742  2785.704  
141  955  341.45908  270.5118  435.62708  
142  956  1873.9282  -4300.9985  4691.5024  
143  956  1583.5469  -3921.04  4228.7324  
144  955  -5300.3125  5634.4614  7735.662  
145  955  -4457.3965  -780.47235  4525.2095  
146  955  -1662.5486  2121.0122  2694.951  
147  955  -862.0316  -1599.5254  1817.025  
148  955  -2390.3967  145.37575  2394.8132  
149  955  -500.912  -374.24066  625.275  
150  955  -1316.7712  -867.8714  1577.0502  
151  0  -1041.5382  -528.84534  1168.1093  
152  0  -804.4444  -659.25885  1040.0736  
153  0  -834.19745  -910.2544  1234.6855  
154  0  -821.4879  -648.4281  1046.5665  
155  0  -552.4883  -916.9053  1070.4945  
156  0  -681.81494  -918.7856  1144.1322  
157  0  -676.351  -746.4677  1007.30566  
158  0  0.8727751  -865.9702  865.97064  
159  0  -1001.97626  -1479.6575  1786.9927  
160  0  -81.55252  367.8553  376.78683  
161  956  538.4192  -2422.1829  2481.303  
162  956  -1924.706  260.29288  1942.227  
163  955  2609.284  -155.98296  2613.9421  
164  955  3512.5854  5092.4556  6186.3853  
165  955  -254.23842  217.5286  334.59805  
166  956  534.82965  -3653.704  3692.6409  
167  955  -1735.0072  -583.48566  1830.4933  
168  955  1311.8718  -1302.2198  1848.4546  
169  955  -683.5528  -2024.4166  2136.7046  
170  955  197.1816  -865.59314  887.768  
171  0  311.55954  -1577.2141  1607.692  
172  0  171.73857  -1424.6794  1434.9933  
173  0  282.24313  -1235.5741  1267.4006  
174  0  570.4689  -1451.5276  1559.6047  
175  0  352.66998  -1379.6272  1423.99  
176  0  693.0725  -1297.3014  1470.8298  
177  0  805.1901  -1474.9855  1680.4504  
178  0  580.69824  -1596.6515  1698.9722  
179  0  1168.398  -867.3692  1455.1573  
180  954  1598.1288  -2536.7498  2998.1853  
181  955  243.15002  -888.1884  920.8695  
182  955  3959.618  -1821.1094  4358.327  
183  955  1400.1063  -3910.069  4153.184  
184  955  8418.981  -2487.7097  8778.835  
185  956  -10509.205  2941.395  10913.075  
186  956  -4770.3813  2114.0847  5217.8438  
187  955  575.15454  203.95642  610.24664  
188  955  -2136.1377  -1119.1912  2411.5708  
189  955  -230.70753  832.8727  864.2354  
190  0  -103.19369  -1045.5796  1050.6595  
191  0  -546.59247  -243.63553  598.4326  
192  0  -2.1824236  -387.16296  387.1691  
193  0  30.041573  -566.58057  567.37646  
194  0  -155.0677  -544.0675  565.73444  
195  0  172.22432  -460.18265  491.35452  
196  0  -7.7691755  -732.4775  732.5187  
197  0  -1.3249626  -578.16565  578.1672  
198  0  179.92499  -574.91504  602.41205  
199  0  150.64801  -1259.8333  1268.8083  
200  955  -691.18585  -482.23288  842.7849  
201  955  1169.4987  -1200.6172  1676.0695  
202  955  -1641.0023  -2630.3167  3100.2346  
203  955  98.28947  -431.3516  442.4082  
204  955  -732.7274  -7060.664  7098.582  
205  955  -18410.21  -42708.617  46507.656  
206  956  5362.1484  6939.502  8769.796  
207  955  -236.95453  2262.4976  2274.872  
208  955  1750.6298  4194.566  4545.227  
209  955  1296.4097  673.4958  1460.9156  
210  0  26.35315  2322.2668  2322.4165  
211  0  1217.6821  1581.1097  1995.6597  
212  0  421.9566  1307.7998  1374.1862  
213  0  454.61273  1472.6042  1541.18  
214  0  547.0314  1424.1675  1525.6134  
215  0  302.24484  1165.4062  1203.9617  
216  0  250.78043  1453.6881  1475.1609  
217  0  306.87805  1222.9045  1260.821  
218  0  66.30996  1206.6912  1208.5117  
219  955  -198.1857  1525.6398  1538.4584  
220  955  508.019  1262.7789  1361.1371  
221  955  -1155.5397  781.5253  1395.0103  
222  955  39.121048  2791.2043  2791.4785  
223  954  -426.82986  -354.7735  555.0207  
224  955  -3401.7197  3148.495  4635.161  
225  955  -2348.6182  2273.288  3268.6152  
226  955  7083.391  -2269.3433  7438.0337  
227  955  3407.361  2794.635  4406.8237  
228  955  1882.5055  -1104.1765  2182.4375  
229  0  -236.00958  2034.3317  2047.976  
230  0  1876.9515  887.616  2076.2488  
231  0  -108.11862  640.3695  649.4326  
232  0  503.6406  1403.7705  1491.3838  
233  0  366.87857  916.83704  987.5171  
234  0  102.324715  941.2293  946.775  
235  0  40.686756  1167.3514  1168.0603  
236  0  127.91038  894.2163  903.31824  
237  0  -204.69075  1018.2259  1038.5963  
238  0  -88.51914  1046.9967  1050.732  
239  956  -61.00296  855.49615  857.6684  
240  956  -691.9654  697.1727  982.2759  
241  955  4.8380747  1578.0969  1578.1044  
242  955  -167.654  -491.44577  519.25604  
243  955  -1733.4114  1801.418  2499.9644  
244  955  1506.5382  129.2503  1512.0724  
245  955  -2818.6416  -1307.6372  3107.1943  
246  954  -704.16943  -6316.869  6355.9966  
247  955  -103.29609  377.99118  391.85126  
248  955  -2220.8132  3342.6895  4013.1763  
249  0  1062.1921  1174.9996  1583.9432  
250  0  -2056.9004  652.32227  2157.8608  
251  0  -430.91223  2035.9768  2081.0784  
252  0  -829.6844  559.83215  1000.89374  
253  0  -1199.3871  1174.1761  1678.4573  
254  0  -993.5022  1065.1981  1456.6034  
255  0  -1015.9832  835.6145  1315.4746  
256  0  -1338.7527  911.3065  1619.487  
257  0  -1108.721  906.2413  1431.9691  
258  710  -1399.9044  678.46027  1555.6481  
259  955  -1547.0471  787.32446  1735.8671  
260  955  -1378.1158  948.23914  1672.8302  
261  955  -1656.09  67.17362  1657.4518  
262  955  -2638.3389  1393.8829  2983.9138  
263  955  -808.1342  326.92914  871.7589  
264  956  -4537.7056  -238.34666  4543.961  
265  955  -2959.2288  2485.7964  3864.7402  
266  955  -8684.139  -1952.3706  8900.899  
267  956  13677.734  2272.77  13865.277  
268  0  5496.716  -124.18983  5498.1187  
269  0  -393.704  -461.6614  606.74054  
270  0  1655.1635  1715.6995  2383.9443  
271  0  547.5486  -875.6797  1032.775  
272  0  -270.0046  847.22644  889.2104  
273  0  467.19302  208.59445  511.64536  
274  0  -128.03186  162.42589  206.81955  
275  0  -197.78777  308.33585  366.3209  
276  0  -18.203394  338.36035  338.84967  
277  0  -294.05374  141.65494  326.39505  
278  955  -232.75998  459.1471  514.77496  
279  956  -164.08792  299.54263  341.54156  
280  954  -328.01794  246.07822  410.0613  
281  955  -541.9216  871.19403  1025.9912  
282  955  476.62427  459.9131  662.33734  
283  955  -1516.2633  460.68393  1584.7032  
284  955  533.5534  2758.363  2809.4922  
285  955  -366.37927  55.70865  370.59036  
286  955  -2227.7578  6272.205  6656.0845  
287  955  -1728.6453  31777.166  31824.15  
288  0  -1424.1161  -8801.602  8916.069  
289  0  1655.114  -2157.7769  2719.4492  
290  0  381.455  -4676.956  4692.4863  
291  0  -563.02234  -1155.0583  1284.9723  
292  0  1235.1957  -2252.4736  2568.9192  
293  0  -202.86687  -1975.721  1986.1088  
294  0  460.7339  -1397.2223  1471.226  
295  0  469.2257  -1582.8492  1650.9344  
296  0  353.21735  -1549.8336  1589.5743  
297  43  472.13412  -1212.1833  1300.884  
298  955  624.69073  -1448.1755  1577.1655  
299  955  480.30048  -1218.0801  1309.3539  
300  955  692.80023  -1108.6816  1307.3435  
301  955  1010.1215  -1289.7295  1638.2147  
302  955  281.5799  -1283.9983  1314.5109  
303  955  1594.6294  -231.62003  1611.363  
304  955  1192.384  -2468.3418  2741.257  
305  955  397.92648  638.4018  752.2648  
306  955  4307.6694  -1451.1947  4545.5454  
307  0  2290.6658  -832.9969  2437.4236  
308  0  -6993.5625  -1367.0652  7125.9233  
309  0  -1537.6246  -3915.4092  4206.509  
310  0  -1630.3457  415.93524  1682.5662  
311  0  1432.2073  -1722.9685  2240.4995  
312  0  -1023.7914  -1379.1146  1717.5873  
313  0  739.6825  -381.38647  832.2174  
314  0  404.73386  -1316.153  1376.9779  
315  0  349.59708  -787.63257  861.73267  
316  0  585.0131  -698.8633  911.40015  
317  955  700.96606  -860.9784  1110.242  
318  956  514.3966  -626.1655  810.36237  
319  955  858.2546  -604.09  1049.536  
320  955  722.0961  -649.0812  970.94244  
321  955  629.04755  -448.45023  772.53375  
322  955  1108.4943  -77.48576  1111.1991  
323  955  769.86957  -1091.9554  1336.0636  
324  955  188.47708  880.2323  900.1847  
325  954  2383.198  -624.41376  2463.6406  
326  955  -1258.2225  -173.72304  1270.1589  
327  0  2095.1091  2852.2107  3539.0095  
328  0  -2457.0469  6089.0967  6566.1387  
329  0  841.19446  -565.17816  1013.4271  
330  0  3648.9585  -2187.3352  4254.331  
331  0  -341.42093  -1269.2947  1314.4114  
332  0  2390.304  410.06268  2425.2227  
333  0  1309.8903  -1477.5449  1974.5763  
334  0  1114.027  103.42069  1118.8173  
335  0  1670.9558  -345.64688  1706.3308  
336  37  1403.293  -289.25217  1432.7938  
337  956  1330.2747  -59.803627  1331.6183  
338  955  1637.546  0.66145325  1637.5461  
339  956  1399.5582  -70.54817  1401.3352  
340  956  1574.9336  242.9794  1593.5667  
341  956  1733.9983  206.05887  1746.1989  
342  956  1626.8784  31.413553  1627.1816  
343  956  1549.4543  937.6417  1811.0717  
344  956  2909.6472  111.13874  2911.769  
345  956  827.61865  475.04422  954.2639  
346  0  4057.187  2398.0798  4712.913  
347  0  3483.3447  -582.37286  3531.692  
348  0  6688.7866  5975.8726  8969.443  
349  0  -14610.645  -10211.25  17825.277  
350  0  -5410.834  -2169.4177  5829.5366  
351  0  39.798893  542.46375  543.92175  
352  0  -1072.5245  -2166.3726  2417.3289  
353  0  -989.3881  726.6159  1227.5421  
354  0  421.87244  -596.7738  730.8319  
355  0  -543.43243  -245.61977  596.3622  
356  956  9.073063  38.005394  39.0734  
357  956  114.078804  -88.41329  144.32907  
358  956  -32.781013  -176.55421  179.57167  
359  954  138.00044  111.68178  177.53012  
360  954  195.0831  -201.6615  280.57935  
361  955  70.74919  -80.93413  107.49782  
362  955  207.77095  2.3163643  207.78387  
363  955  630.0018  -476.18558  789.71826  
364  956  -424.25357  -452.8816  620.5585  
365  955  1397.3876  265.4651  1422.3796  
366  0  379.94492  -2540.114  2568.3726  
367  0  289.63483  337.17996  444.4982  
368  0  4362.726  -4459.008  6238.2793  
369  0  11447.396  -20375.379  23370.9  
370  0  -2993.5415  8483.314  8995.994  
371  0  -2927.066  1129.8176  3137.5474  
372  0  -2510.9568  4024.383  4743.476  
373  0  -279.17337  1057.3203  1093.5557  
374  0  -2361.4365  1454.7898  2773.589  
375  535  -849.9406  1731.2262  1928.6117  
376  955  -1254.3558  921.3985  1556.4009  
377  954  -1314.5072  1100.4552  1714.3309  
378  955  -1169.186  1101.5957  1606.3962  
379  955  -1144.7799  738.5934  1362.3661  
380  955  -1353.7461  894.3932  1622.5189  
381  955  -1118.7502  734.24445  1338.1768  
382  955  -1272.8429  537.30695  1381.6033  
383  954  -1592.6719  584.92267  1696.6844  
384  955  -909.50684  830.56555  1231.6825  
385  0  -1705.4636  -616.3898  1813.4338  
386  0  -2096.0461  1561.4413  2613.7156  
387  0  -195.52034  -1017.3826  1035.9999  
388  0  -4412.223  -471.1899  4437.3115  
389  0  -1684.3025  -156.40718  1691.5491  
390  0  5247.2266  4372.098  6829.98  
391  0  -530.2415  3873.6401  3909.7627  
392  0  1321.1234  -167.48187  1331.6971  
393  0  -2273.1006  709.5355  2381.2659  
394  0  228.14153  1295.3505  1315.2876  
395  955  -1041.395  -303.92044  1084.8369  
396  955  -1017.059  715.06744  1243.274  
397  956  -740.63745  206.83485  768.97626  
398  955  -910.10724  55.100082  911.7736  
399  955  -1062.8075  162.44467  1075.1503  
400  956  -771.9977  -1.6963377  771.9996  
401  955  -1061.4592  -166.42772  1074.4272  
402  955  -909.9271  -58.514233  911.80664  
403  955  -740.2685  -212.04204  770.03845  
404  954  -1014.48926  -718.7361  1243.29  
405  0  -1040.3987  299.20438  1082.5676  
406  0  231.45706  -1298.1366  1318.6095  
407  0  -2270.192  -715.2935  2380.2134  
408  0  1323.3522  169.30049  1334.1378  
409  0  -520.469  -3877.119  3911.8972  
410  0  5255.52  -4359.4536  6828.274  
411  0  -1692.4993  155.57518  1699.6345  
412  0  -4413.0977  466.11224  4437.6445  
413  0  -197.60965  1017.082  1036.1011  
414  954  -2093.2717  -1565.7524  2614.071  
415  955  -1706.278  612.6385  1812.9287  
416  955  -906.6907  -832.6209  1230.9937  
417  955  -1589.8005  -588.09796  1695.0885  
418  955  -1271.0593  -540.03467  1381.0247  
419  955  -1116.5415  -737.1623  1337.9362  
420  955  -1351.5886  -897.3901  1622.375  
421  955  -1141.5253  -740.4031  1360.6163  
422  955  -1166.0176  -1104.7053  1606.2288  
423  955  -1312.18  -1102.6569  1713.9628  
424  0  -1250.9119  -923.2109  1554.7021  
425  0  -843.69104  -1731.8616  1926.4369  
426  0  -2355.0151  -1456.287  2768.911  
427  0  -273.62866  -1055.76  1090.6428  
428  0  -2498.8296  -4026.106  4738.5312  
429  0  -2918.0955  -1128.4021  3128.6694  
430  0  -2962.875  -8470.993  8974.205  
431  0  11414.535  20410.076  23385.1  
432  0  4350.559  4460.265  6230.6763  
433  0  287.98877  -339.97064  445.5531  
434  955  375.55978  2536.504  2564.1562  
435  955  1396.9681  -265.70087  1422.0116  
436  956  -426.72348  452.22464  621.7717  
437  955  628.4447  476.71277  788.79517  
438  955  206.34538  -1.6061077  206.35164  
439  955  70.41278  81.1832  107.464745  
440  955  193.5417  201.48306  279.38113  
441  955  136.67628  -111.59458  176.4476  
442  955  -32.87638  175.98561  179.03015  
443  955  113.9617  88.50574  144.29323  
444  0  8.761486  -36.603683  37.637657  
445  0  -543.8784  246.7052  597.2162  
446  0  420.75214  598.62463  731.6993  
447  0  -991.11896  -728.52136  1230.0652  
448  0  -1076.4651  2166.1846  2418.9114  
449  0  37.393936  -539.35144  540.6462  
450  0  -5417.8955  2163.1492  5833.7646  
451  0  -14619.129  10175.358  17811.705  
452  0  6717.52  -5970.7954  8987.518  
453  955  3488.9722  587.90894  3538.1582  
454  955  4066.9385  -2392.3845  4718.4204  
455  955  831.92645  -473.17758  957.0782  
456  955  2912.1484  -106.21442  2914.085  
457  955  1552.9695  -934.35785  1812.3848  
458  955  1632.3295  -30.077478  1632.6066  
459  955  1736.097  -203.6028  1747.9951  
460  955  1576.2771  -241.22685  1594.6285  
461  955  1401.86  72.83674  1403.7509  
462  955  1638.1643  2.5806825  1638.1664  
463  0  1330.5898  63.478848  1332.1033  
464  0  1400.9384  291.8103  1431.0072  
465  0  1669.5505  349.37454  1705.7144  
466  0  1113.0449  -100.54053  1117.5765  
467  0  1308.6921  1480.2072  1975.7754  
468  0  2389.0945  -404.81665  2423.1487  
469  0  -344.61008  1268.5342  1314.5095  
470  0  3643.1416  2193.7102  4252.628  
471  0  835.75543  561.1307  1006.6552  
472  0  -2443.7498  -6097.839  6569.2886  
473  954  2100.0967  -2844.0742  3535.4158  
474  955  -1257.8125  173.07362  1269.6641  
475  955  2382.1472  631.53503  2464.4395  
476  955  187.4616  -877.03485  896.8456  
477  955  768.5249  1097.8192  1340.0886  
478  955  1106.332  81.85016  1109.3557  
479  955  630.46027  451.78357  775.6214  
480  955  718.9124  652.7251  971.0227  
481  955  855.3497  607.37244  1049.0588  
482  954  511.32684  628.6946  810.3777  
483  0  698.1849  863.18054  1110.1995  
484  0  583.5008  700.92084  912.01056  
485  0  346.54395  789.561  862.26404  
486  0  402.54224  1318.239  1378.3303  
487  0  735.62256  385.09586  830.3249  
488  0  -1028.5111  1377.7101  1719.2789  
489  0  1426.6327  1725.505  2238.8945  
490  0  -1634.451  -417.47394  1686.9247  
491  0  -1549.4286  3913.846  4209.385  
492  955  -6992.4717  1350.257  7121.6465  
493  956  2294.9055  836.9832  2442.7715  
494  955  4305.801  1459.5775  4546.4585  
495  955  397.0275  -639.2988  752.5515  
496  955  1186.9927  2470.5989  2740.9507  
497  955  1593.5325  232.248  1610.3679  
498  955  279.29138  1285.2852  1315.28  
499  955  1005.98035  1289.7843  1635.7078  
500  955  689.7255  1108.6941  1305.7274  
501  955  475.61105  1218.2246  1307.7756  
502  0  623.19476  1445.5422  1574.155  
503  0  468.8848  1210.7178  1298.3414  
504  0  348.6829  1547.4227  1586.221  
505  0  465.44806  1580.8967  1647.9917  
506  0  458.3553  1392.1779  1465.6906  
507  0  -207.43723  1970.9816  1981.8674  
508  0  1229.2593  2248.0486  2562.1868  
509  0  -568.3526  1148.3989  1281.3448  
510  0  368.06912  4670.297  4684.7783  
511  0  1650.4368  2146.3267  2707.519  
512  955  -1446.6161  8769.623  8888.138  
513  956  -1666.4305  -31794.69  31838.33  
514  955  -2215.059  -6265.0415  6645.091  
515  955  -363.4097  -48.73146  366.66245  
516  956  538.62573  -2754.141  2806.3162  
517  955  -1513.2676  -461.11133  1581.9615  
518  955  478.7116  -456.7866  661.6788  
519  955  -540.9612  -870.8578  1025.1986  
520  954  -330.28854  -240.76965  408.7304  
521  954  -163.94641  -297.89453  340.02878  
522  0  -231.47917  -456.5365  511.86734  
523  0  -293.80215  -144.23764  327.29834  
524  0  -18.318447  -338.53284  339.0281  
525  0  -195.83429  -309.3518  366.12787  
526  0  -125.358444  -162.55159  205.27484  
527  0  468.48  -208.65224  512.8443  
528  0  -267.79926  -847.4053  888.71375  
529  0  548.1841  877.08545  1034.304  
530  0  1658.9402  -1711.5106  2383.5586  
531  956  -392.5496  460.7323  605.2846  
532  956  5499.289  134.01764  5500.922  
533  956  13667.804  -2245.5564  13851.043  
534  955  -8705.15  1933.0054  8917.183  
535  955  -2960.4993  -2493.49  3870.665  
536  955  -4543.0723  228.95511  4548.838  
537  956  -807.8482  -329.55396  872.4818  
538  956  -2637.3984  -1399.8911  2985.8945  
539  956  -1656.0549  -71.2778  1657.5881  
540  955  -1373.0775  -951.787  1670.7006  
541  0  -1545.2999  -789.9138  1735.487  
542  0  -1397.7969  -681.4877  1555.076  
543  0  -1105.67  -909.62665  1431.7566  
544  0  -1336.1868  -913.49255  1618.5994  
545  0  -1014.11456  -838.6775  1315.9818  
546  0  -991.5768  -1067.9712  1457.3219  
547  0  -1198.5831  -1175.2235  1678.616  
548  0  -826.9961  -559.1412  998.27924  
549  0  -425.95074  -2037.0573  2081.1143  
550  0  -2055.145  -656.42834  2157.4333  
551  955  1067.3628  -1171.931  1585.1454  
552  955  -2214.2043  -3345.0017  4011.4507  
553  955  -102.26773  -369.37955  383.27527  
554  955  -716.72217  6318.0977  6358.62  
555  955  -2818.4854  1299.0651  3103.4546  
556  955  1509.7325  -128.5895  1515.1989  
557  956  -1727.5875  -1805.1616  2498.633  
558  956  -165.60092  488.8523  516.1397  
559  955  9.81513  -1578.0186  1578.0491  
560  954  -689.992  -699.24677  982.36194  
561  0  -57.20095  -855.4469  857.3572  
562  0  -85.97376  -1045.983  1049.5104  
563  0  -201.8856  -1019.2733  1039.0746  
564  0  131.6167  -892.7654  902.41504  
565  0  43.981365  -1166.5067  1167.3356  
566  0  105.31911  -937.94275  943.8372  
567  0  370.70395  -915.8838  988.06104  
568  0  509.5075  -1402.1699  1491.8708  
569  0  -101.58902  -640.2324  648.2422  
570  956  1881.8213  -883.2984  2078.814  
571  955  -230.983  -2034.008  2047.0813  
572  955  1883.489  1110.5663  2186.5242  
573  955  3414.9993  -2786.4805  4407.5723  
574  955  7073.308  2284.6414  7433.12  
575  955  -2352.8706  -2278.9893  3275.6362  
576  955  -3396.8567  -3153.4924  4634.9917  
577  955  -428.0065  355.1803  556.1858  
578  955  43.19999  -2789.879  2790.2134  
579  955  -1153.6562  -783.5043  1394.5615  
580  0  511.4204  -1259.0065  1358.9143  
581  0  -193.32382  -1523.3434  1535.5614  
582  0  67.14053  -1201.8633  1203.7372  
583  0  310.72278  -1218.2572  1257.2587  
584  0  253.24762  -1449.3795  1471.3379  
585  0  304.14343  -1159.9938  1199.2034  
586  0  549.6854  -1419.1318  1521.8704  
587  0  456.0152  -1466.2764  1535.5508  
588  0  423.02332  -1303.524  1370.4465  
589  0  1219.8561  -1574.135  1991.4694  
590  956  29.612785  -2314.0342  2314.2236  
591  956  1296.5074  -663.0315  1456.2081  
592  955  1754.6798  -4179.033  4532.463  
593  955  -239.44731  -2245.5247  2258.2551  
594  955  5363.133  -6890.0347  8731.31  
595  955  -18502.338  42684.37  46521.953  
596  955  -734.2902  7041.6436  7079.825  
597  955  99.732506  419.9247  431.60553  
598  955  -1644.1168  2621.2397  3094.191  
599  953  1164.8942  1204.048  1675.3239  
600  0  -690.4182  477.04544  839.19586  
601  0  149.91899  1258.2751  1267.1748  
602  0  179.85545  573.4622  601.0049  
603  0  -0.061668396  573.6192  573.6192  
604  0  -8.576934  730.59015  730.6405  
605  0  167.8539  460.2578  489.9104  
606  0  -155.74635  543.18634  565.0737  
607  0  27.521473  564.7426  565.41284  
608  0  -3.644433  388.05203  388.06915  
609  956  -546.38293  242.4043  597.7409  
610  955  -105.98053  1044.3798  1049.7433  
611  955  -229.57932  -835.1732  866.153  
612  956  -2137.606  1114.0021  2410.4688  
613  956  574.84674  -201.76962  609.2288  
614  955  -4770.359  -2122.4424  5221.215  
615  956  -10494.148  -2957.1902  10902.85  
616  955  8426.115  2510.263  8792.089  
617  955  1397.3749  3915.6633  4157.532  
618  955  3958.3276  1827.9304  4360.0103  
619  0  240.72438  888.8573  920.8776  
620  0  1594.7603  2540.4028  2999.4844  
621  0  1167.6617  868.65717  1455.3347  
622  0  577.51715  1597.7163  1698.8889  
623  0  803.60565  1476.3086  1680.8536  
624  0  689.15265  1297.5143  1469.1748  
625  0  349.04303  1380.8217  1424.254  
626  0  567.35046  1451.9845  1558.8925  
627  0  280.97394  1229.1324  1260.8383  
628  0  166.88344  1423.5773  1433.3257  
629  954  308.10797  1577.1481  1606.9619  
630  955  194.74223  864.0102  885.6852  
631  955  -687.85846  2021.2856  2135.1218  
632  954  1307.7499  1300.4076  1844.253  
633  955  -1736.104  578.9598  1830.0961  
634  955  529.8352  3651.1594  3689.4023  
635  956  -252.92447  -225.38818  338.77814  
636  955  3524.4568  -5087.6846  6189.2104  
637  956  2604.9363  163.4298  2610.0579  
638  953  -1926.832  -263.63675  1944.7843  
639  0  533.9039  2420.7412  2478.9194  
640  0  -83.162094  -368.14844  377.42444  
641  0  -1006.4347  1474.7814  1785.4666  
642  0  -1.7850542  864.99854  865.00037  
643  0  -680.1159  742.1395  1006.64233  
644  0  -684.2367  916.30096  1143.5852  
645  0  -555.6013  913.6549  1069.326  
646  0  -824.2726  646.04895  1047.2843  
647  0  -836.56824  906.508  1233.5328  
648  955  -805.6745  655.2199  1038.4722  
649  955  -1041.6527  526.5076  1167.1549  
650  955  -1317.743  862.73395  1575.0417  
651  955  -501.46875  369.8343  623.09576  
652  955  -2388.5513  -153.1001  2393.453  
653  954  -867.40375  1594.7106  1815.3488  
654  954  -1659.7332  -2126.8953  2697.8506  
655  955  -4458.766  766.6462  4524.1953  
656  955  -5281.6685  -5642.6875  7728.9033  
657  955  1583.0293  3930.3762  4237.197  
658  0  1867.927  4302.29  4690.2935  
659  0  343.60675  -272.8184  438.74304  
660  0  -1264.363  2480.1057  2783.7993  
661  0  638.12024  976.50366  1166.5148  
662  0  -1128.8695  784.22705  1374.5394  
663  0  -533.18585  1288.0782  1394.0706  
664  0  -665.876  848.47437  1078.5636  
665  0  -881.93005  779.29144  1176.9009  
666  0  -909.49756  985.18494  1340.8114  
667  0  -852.777  682.2125  1092.0818  
668  955  -1156.8195  825.5373  1421.1766  
669  955  -1065.0991  892.27106  1389.4545  
670  955  -976.8437  722.92346  1215.2538  
671  955  -1793.1254  685.5119  1919.694  
672  955  -979.6617  1767.3237  2020.6855  
673  955  -1582.5297  -218.27834  1597.5123  
674  955  -3287.8643  2809.0535  4324.446  
675  955  -795.8896  1631.0701  1814.8911  
676  954  -7750.3037  3432.0542  8476.214  
677  949  61149.02  -51277.273  79803.266  
678  0  3981.089  -6325.483  7474.009  
679  0  444.16885  -496.16696  665.93365  
680  0  2795.7869  -1981.7303  3426.9053  
681  0  -417.5415  -1694.887  1745.5609  
682  0  1060.601  -318.9775  1107.5292  
683  0  540.70544  -1395.2042  1496.3146  
684  0  264.8097  -730.6793  777.18494  
685  0  419.2908  -676.6153  795.9981  
686  0  472.6561  -821.4451  947.72144  
687  955  216.97603  -618.53644  655.4891  
688  956  562.76434  -571.1519  801.82184  
689  956  376.65475  -663.16315  762.66254  
690  956  359.5368  -459.92847  583.78156  
691  956  776.30206  -135.51709  788.04175  
692  955  658.0661  -1004.67017  1201.005  
693  955  90.30137  769.9007  775.1783  
694  955  2486.889  -301.51624  2505.1006  
695  956  -577.28  -73.36924  581.92377  
696  955  3452.6023  3617.2664  5000.508  
697  0  6566.777  5564.677  8607.45  
698  0  -5995.029  -6160.2344  8595.863  
699  0  813.70715  -4284.3228  4360.9106  
700  0  -2510.4883  -3169.2961  4043.141  
701  0  606.1735  -891.85046  1078.3523  
702  0  -127.6506  -2937.1677  2939.9402  
703  0  -364.45908  -1158.2848  1214.271  
704  0  463.7146  -1647.702  1711.7106  
705  0  182.11966  -1579.4  1589.8654  
706  0  215.25342  -1360.8225  1377.7416  
707  954  535.718  -1282.3773  1389.7789  
708  955  360.74902  -1407.7927  1453.2792  
709  955  522.40015  -1074.904  1195.1237  
710  954  685.5214  -1217.8682  1397.5487  
711  955  577.42145  -1362.5656  1479.865  
712  956  422.68195  -659.4333  783.2702  
713  956  1606.3677  -1383.3751  2119.9397  
714  955  -477.5807  -1401.3038  1480.4512  
715  955  2009.236  397.5896  2048.1958  
716  944  948.9747  -3188.8125  3327.0225  
717  0  21.009377  922.09235  922.33167  
718  0  -5408.928  2825.771  6102.58  
719  0  -1756.8134  -1104.7754  2075.3125  
720  0  2157.9255  1092.886  2418.8928  
721  0  758.1328  -2258.5454  2382.3923  
722  0  254.6201  639.2121  688.0578  
723  0  1791.4475  -761.8825  1946.7278  
724  0  566.8713  -520.5709  769.6344  
725  0  1150.3351  -133.67531  1158.0759  
726  955  1212.9974  -297.3991  1248.9231  
727  955  1081.0565  -307.76572  1124.012  
728  955  1193.7142  46.12383  1194.605  
729  954  1256.0029  -172.31236  1267.7677  
730  955  1145.1235  68.16778  1147.1508  
731  955  1289.6921  266.80148  1317.0  
732  955  1644.6873  88.18272  1647.0497  
733  955  700.33093  270.5687  750.78015  
734  954  2208.1152  1438.2957  2635.2358  
735  955  1410.9497  -687.5035  1569.535  
736  0  770.0088  3119.6218  3213.2466  
737  0  4296.0537  1555.8912  4569.122  
738  0  1922.2106  7810.294  8043.3564  
739  0  169.55531  -5389.4976  5392.164  
740  0  -53.06524  -4776.3228  4776.6177  
741  0  -333.83847  257.88574  421.84497  
742  0  2135.4568  -1689.6595  2723.0728  
743  0  -237.86353  -928.177  958.17096  
744  0  1356.1831  -78.17252  1358.4342  
745  0  927.95874  -753.7109  1195.4863  
746  955  877.2303  -276.8915  919.89233  
747  955  1038.7051  -131.91241  1047.0479  
748  955  1134.5864  -301.98047  1174.0863  
749  955  948.7357  -47.602734  949.9292  
750  955  1291.0977  -65.75582  1292.771  
751  955  1192.6625  -144.16136  1201.3435  
752  955  1073.4912  -10.780782  1073.5454  
753  954  1793.0887  302.81058  1818.4778  
754  955  1425.513  -941.43024  1708.326  
755  935  1253.0171  1116.5696  1678.3264  
756  0  3890.947  -1003.13715  4018.1777  
757  0  1145.7242  -688.167  1336.5095  
758  0  8047.25  586.7556  8068.613  
759  0  -236344.84  55682.33  242815.58  
760  0  -6648.3774  4031.08  7774.994  
761  0  -950.86334  115.76554  957.8845  
762  0  -3660.407  723.8591  3731.2935  
763  0  -490.7648  1666.2847  1737.0533  
764  0  -1378.1113  -148.92426  1386.1346  
765  956  -1267.2773  1083.2786  1667.1786  
766  955  -748.9854  529.17395  917.0628  
767  956  -902.40454  439.71478  1003.83417  
768  955  -1019.1535  520.2876  1144.2783  
769  955  -668.4992  433.85648  796.9458  
770  956  -925.9839  255.32678  960.54047  
771  955  -823.3701  421.17426  924.83844  
772  955  -713.0604  225.09427  747.745  
773  955  -979.3715  -220.28873  1003.84045  
774  955  -1140.024  605.9238  1291.0455  
775  0  20.671144  -804.8444  805.10986  
776  0  -2510.8416  -658.6679  2595.7983  
777  0  458.04004  218.99168  507.69876  
778  0  -1770.6471  -4526.275  4860.2837  
779  0  -2908.475  -6157.0596  6809.45  
780  0  2167.829  8051.551  8338.282  
781  0  -2933.0842  3423.5579  4508.185  
782  0  745.8639  3577.7412  3654.6606  
783  0  -1275.228  310.75632  1312.5457  
784  0  -1273.1919  2505.2925  2810.2505  
785  956  -358.3507  909.2851  977.3508  
786  956  -1283.1088  1053.3492  1660.0942  
787  956  -957.2483  1093.9668  1453.6464  
788  956  -892.32886  865.69037  1243.25  
789  955  -1157.9696  649.7725  1327.817  
790  955  -1005.2197  836.53394  1307.7675  
791  956  -1007.22284  447.91962  1102.3293  
792  956  -1186.3107  537.9559  1302.5857  
793  956  -1104.2147  681.5646  1297.6211  
794  11  -701.1861  114.67436  710.50134  
795  0  -1981.4662  349.6649  2012.0819  
796  0  -25.337543  1085.6681  1085.9637  
797  0  -1586.9916  -1452.8273  2151.5688  
798  0  -1744.3839  2205.9248  2812.2908  
799  0  1005.0068  -1311.9797  1652.6735  
