n v(n)    Re(T)       Im(T)        Mod(T) 
   
0  1023  485995.0  0.0  485995.0  
1  1023  -1390.3099  -330.29  1429.0043  
2  1023  -1562.5891  170.54915  1571.8689  
3  1023  -1239.3628  232.21602  1260.9299  
4  1023  -1240.018  160.98929  1250.4247  
5  1023  -1186.4618  122.826065  1192.8025  
6  973  -1444.6309  1.2335186  1444.6313  
7  590  -1572.12  438.25754  1632.0635  
8  281  -1016.9625  452.42972  1113.0613  
9  84  -1110.9369  108.46689  1116.2195  
10  0  -1584.3223  371.11697  1627.2076  
11  0  -1383.226  628.42957  1519.2886  
12  0  -1309.4108  555.9483  1422.5453  
13  0  -1283.3843  579.2365  1408.0448  
14  15  -1383.5669  398.51227  1439.8158  
15  371  -1822.0197  740.5412  1966.7631  
16  815  -1595.1216  1340.8792  2083.8352  
17  1023  -944.69434  225.42825  971.21844  
18  1023  -1638.1461  444.75674  1697.4485  
19  1023  -1665.648  906.6004  1896.3932  
20  1023  -1544.0436  960.7708  1818.5574  
21  1023  -1538.7698  1064.7776  1871.2466  
22  1023  -1538.8992  941.65643  1804.1417  
23  1023  -1941.6971  1019.6219  2193.1294  
24  1023  -1561.6952  1722.8804  2325.3406  
25  1023  -1759.4285  1434.0804  2269.8403  
26  814  -2023.1716  1263.4667  2385.2822  
27  450  -2334.271  1776.4156  2933.3384  
28  187  -2224.772  2051.1897  3026.052  
29  31  -2315.1597  2249.7747  3228.227  
30  0  -2277.745  2391.5405  3302.6638  
31  0  -2709.5405  2489.7617  3679.745  
32  0  -3226.2964  3357.1528  4656.121  
33  0  -2826.6077  4051.7795  4940.3066  
34  103  -3426.7305  4043.5176  5300.2373  
35  555  -4304.3203  4954.8125  6563.333  
36  976  -4862.158  6451.9194  8078.852  
37  1023  -5921.0845  8133.4585  10060.437  
38  1023  -7620.677  11250.893  13588.866  
39  1023  -11679.246  17515.21  21052.016  
40  1023  -25182.066  40073.58  47328.938  
41  1023  116431.89  -196110.17  228069.25  
42  1023  17126.64  -29418.674  34040.86  
43  1023  8632.531  -16568.484  18682.486  
44  1023  5586.9106  -11316.591  12620.57  
45  1023  4083.7764  -8728.162  9636.288  
46  659  3337.049  -7138.02  7879.5444  
47  330  2815.1262  -6338.286  6935.3306  
48  112  1926.873  -5819.1265  6129.851  
49  0  1658.47  -4471.537  4769.1895  
50  0  1830.2559  -4277.628  4652.7344  
51  0  1378.1222  -4311.1055  4526.019  
52  0  940.70276  -3803.7288  3918.3254  
53  0  873.1144  -3494.9236  3602.3354  
54  289  773.5559  -3209.9824  3301.8745  
55  736  923.0249  -3133.6553  3266.7676  
56  1023  566.92505  -3354.6455  3402.2124  
57  1023  60.300842  -3026.7302  3027.3308  
58  1023  518.49963  -2460.5737  2514.6104  
59  1023  534.9005  -2925.5344  2974.0327  
60  1023  122.04404  -2849.7556  2852.3677  
61  1023  95.26218  -2655.7605  2657.4685  
62  1023  -26.824371  -2529.8013  2529.9434  
63  1023  136.04895  -2420.3096  2424.1304  
64  1023  106.387054  -2800.152  2802.1724  
65  889  -1193.5226  -2122.1877  2434.785  
66  513  -125.74783  -2317.786  2321.1946  
67  228  93.05847  -2618.8691  2620.522  
68  57  -317.38306  -2834.007  2851.7236  
69  0  -486.0464  -2699.9436  2743.344  
70  0  -595.4686  -2713.817  2778.3782  
71  0  -584.19934  -2553.9746  2619.938  
72  0  -409.50873  -2940.0457  2968.428  
73  69  -887.0401  -3314.2073  3430.8613  
74  468  -1338.5642  -2925.6633  3217.3374  
75  900  -1043.585  -3244.2449  3407.9604  
76  1023  -1372.3263  -3983.9448  4213.6797  
77  1023  -1977.2708  -4399.8716  4823.74  
78  1023  -2504.1614  -5196.5317  5768.428  
79  1023  -3509.5596  -6445.7085  7339.221  
80  1023  -5300.7495  -9875.285  11207.997  
81  1023  -14305.089  -23685.162  27669.883  
82  1023  27061.99  41116.496  49223.14  
83  1023  7042.423  10095.5  12309.137  
84  1023  4284.185  5121.0215  6676.7583  
85  731  2822.473  3176.7305  4249.467  
86  385  2118.7961  2198.4636  3053.2834  
87  144  1571.6624  1754.957  2355.8433  
88  9  1558.8918  1501.0283  2164.0771  
89  0  1513.4938  849.6935  1735.6965  
90  0  799.0656  458.79678  921.4122  
91  0  758.04724  836.26764  1128.7069  
92  0  985.89056  515.245  1112.4108  
93  210  701.0946  164.86122  720.2172  
94  652  541.6987  128.65091  556.7662  
95  1023  308.95483  78.255005  318.71136  
96  1023  337.94214  346.5687  484.0607  
97  1023  599.65356  -1.0283508  599.6545  
98  1023  -199.28564  -566.06177  600.11725  
99  1023  38.45981  69.18915  79.159935  
100  1023  400.81253  93.634766  411.60437  
101  1023  338.49704  -243.34875  416.8919  
102  1023  155.9019  -268.62405  310.587  
103  1023  -3.7351685  -354.06534  354.08505  
104  962  -163.7761  -149.60974  221.82355  
105  579  218.99745  -116.908936  248.24904  
106  273  363.47635  -361.2785  512.48145  
107  79  -407.32343  -447.89  605.40717  
108  0  -229.86618  -86.91177  245.74808  
109  0  -112.06464  -413.30267  428.22607  
110  0  -335.81705  -519.1881  618.3279  
111  0  -482.6401  -634.78485  797.42914  
112  21  -818.5842  -542.3026  981.9227  
113  383  -675.3469  -242.54572  717.58057  
114  826  -607.51135  -734.78406  953.4032  
115  1023  -1479.5725  -785.10583  1674.9705  
116  1023  -1668.653  -525.0077  1749.2958  
117  1023  -1642.7999  -717.0437  1792.4685  
118  1023  -2287.1963  -952.79114  2477.7163  
119  1023  -3065.7585  -1213.1542  3297.062  
120  1023  -4727.838  -1574.0879  4982.9917  
121  1023  -8158.7915  -2052.2437  8412.941  
122  1023  -25186.432  -5912.32  25871.062  
123  1023  24814.568  4603.4966  25237.967  
124  802  8425.115  1670.611  8589.15  
125  442  5559.6104  1038.7998  5655.826  
126  180  4181.7505  489.55194  4210.3086  
127  27  3330.0068  242.51845  3338.8262  
128  0  2730.067  -15.953461  2730.1135  
129  0  2166.4148  206.195  2176.2053  
130  0  2418.1301  298.87653  2436.5305  
131  0  2150.7336  -276.20538  2168.3967  
132  140  1528.712  -202.59323  1542.078  
133  567  1577.2214  96.80441  1580.1893  
134  978  1659.5055  -113.11612  1663.3562  
135  1023  1549.15  -190.07776  1560.7676  
136  1023  1456.9966  -387.3527  1507.6077  
137  1023  1012.63885  -316.53265  1060.9573  
138  1023  1148.2534  75.87378  1150.7574  
139  1023  1692.23  -118.65866  1696.385  
140  1023  1032.0154  -667.9908  1229.3362  
141  1023  925.8936  -230.48251  954.1495  
142  1023  1175.1714  -231.84592  1197.8231  
143  1023  1171.5928  -334.38855  1218.3782  
144  648  1216.6636  -461.66467  1301.3087  
145  322  966.4164  -605.73444  1140.559  
146  107  991.1984  -94.57889  995.7005  
147  0  888.54315  -585.3054  1063.9978  
148  0  1020.47174  -785.38934  1287.7108  
149  0  711.14453  -564.79614  908.14166  
150  0  988.62225  -425.2952  1076.2202  
151  0  1071.2644  -566.2179  1211.6973  
152  301  1227.5576  -674.9469  1400.8751  
153  747  1087.7035  -978.0404  1462.7583  
154  1023  785.2898  -794.9977  1117.4531  
155  1023  1217.1403  -478.45453  1307.8032  
156  1023  1450.8948  -1255.1758  1918.4791  
157  1023  1076.0833  -1399.9451  1765.7297  
158  1023  1293.0499  -1248.5616  1797.4661  
159  1023  1553.4602  -1639.1799  2258.3508  
160  1023  1938.868  -2068.798  2835.337  
161  1023  2478.9604  -3164.4224  4019.8027  
162  1023  3545.4766  -5344.52  6413.6025  
163  877  13929.513  -21297.943  25448.648  
164  504  -5156.134  9583.706  10882.699  
165  222  -2065.1262  3489.9973  4055.2224  
166  54  -1323.5973  2414.9263  2753.8662  
167  0  -709.25385  1802.0206  1936.5741  
168  0  -385.87146  1410.1884  1462.0287  
169  0  -63.05304  1028.4601  1030.3911  
170  0  -271.39026  616.5863  673.67004  
171  77  -622.7512  960.53894  1144.7507  
172  480  185.49263  940.7952  958.9073  
173  912  168.55275  327.0476  367.92685  
174  1023  -145.33438  404.44952  429.76913  
175  1023  37.459316  516.5672  517.9236  
176  1023  105.877266  481.71103  493.2094  
177  1023  324.20398  418.1443  529.1057  
178  1023  236.91898  18.544891  237.64368  
179  1023  -133.25212  210.05626  248.75642  
180  1023  -29.275154  149.54065  152.37927  
181  1023  466.80542  -21.900269  467.31888  
182  1023  109.65256  -111.436554  156.3387  
183  720  87.35496  129.99875  156.62236  
184  377  163.50713  128.34546  207.86327  
185  139  317.19574  165.72644  357.8804  
186  7  516.911  -205.43506  556.23785  
187  0  170.18588  -504.72858  532.64825  
188  0  -259.15442  952.3433  986.97455  
189  0  420.804  378.0788  565.7027  
190  217  174.25186  -69.4462  187.58061  
191  219  43.312004  113.426636  121.41471  
192  662  110.61248  148.82349  185.42802  
193  1023  198.64633  278.39975  342.00406  
194  1023  499.55386  105.56552  510.5861  
195  1023  185.57957  -243.76126  306.3647  
196  1023  -24.532639  114.54492  117.1426  
197  1023  380.6302  222.75494  441.02054  
198  1023  480.9123  -260.9356  547.14166  
199  1023  234.1274  -222.49106  322.98282  
200  1023  271.90125  -215.87686  347.17877  
201  1023  299.4108  -191.79999  355.57568  
202  953  660.1687  -300.92157  725.51807  
203  571  995.1537  -1279.3461  1620.82  
204  268  4328.159  -8432.556  9478.446  
205  76  -470.92456  1761.329  1823.1976  
206  0  131.65901  638.07336  651.51495  
207  0  -76.06866  279.00623  289.1901  
208  0  -63.80297  320.8827  327.16437  
209  0  -94.12428  297.22568  311.77313  
210  25  93.13284  493.09088  501.80908  
211  392  352.71698  152.61642  384.3189  
212  834  -140.73497  -79.677185  161.72441  
213  1023  -173.04681  341.3345  382.69366  
214  1023  296.20074  314.7364  432.19656  
215  1023  173.73322  -6.2596436  173.84595  
216  1023  56.263535  78.282166  96.40375  
217  1023  15.2251625  105.09686  106.193954  
218  1023  33.822334  339.3281  341.00955  
219  1023  449.7896  210.37369  496.5559  
220  1023  263.45505  -301.8332  400.63928  
221  1023  -368.1565  119.37387  387.02628  
222  796  248.52036  350.43762  429.6148  
223  436  337.95264  -6.8964233  338.023  
224  177  133.78242  -44.22058  140.90137  
225  26  97.72616  -45.131012  107.643906  
226  0  -36.834198  102.891846  109.28627  
227  0  307.8828  279.3755  415.74332  
228  0  301.1635  -246.69104  389.30185  
229  0  -57.709526  -65.44739  87.256805  
230  145  -7.395508  340.75958  340.83984  
231  574  328.68924  59.915955  334.1056  
232  984  147.06609  -80.67267  167.73943  
233  1023  79.54349  -78.59299  111.82139  
234  1023  -81.876915  1.040741  81.88353  
235  1023  57.283264  325.02557  330.03485  
236  1023  499.8755  -37.345703  501.2686  
237  1023  -69.23703  -377.36908  383.66806  
238  1023  -166.06523  176.86786  242.6106  
239  1023  261.17413  210.74135  335.59476  
240  1023  197.70418  -22.437958  198.97337  
241  1023  130.45213  -55.302795  141.69035  
242  643  -20.664734  -109.25302  111.19017  
243  318  -163.56659  119.83905  202.7694  
244  104  182.58887  90.35181  203.72075  
245  0  8372.696  5331.1816  9925.902  
246  0  120.30211  267.51285  293.31845  
247  0  340.21466  438.8071  555.2456  
248  0  422.41772  95.637665  433.1089  
249  0  285.71436  36.880646  288.08484  
250  306  215.73122  -64.03088  225.03313  
251  752  -39.094498  136.08115  141.58551  
252  1023  256.5564  485.71606  549.3098  
253  1023  452.5391  -418.38687  616.311  
254  1023  -102.26811  -287.39557  305.04913  
255  1023  -12.57634  189.39929  189.81638  
256  1023  292.38934  63.479675  299.20093  
257  1023  224.83835  -23.88739  226.10371  
258  1023  207.71193  -90.31491  226.49731  
259  1023  -68.55104  -91.59479  114.40652  
260  1023  29.007904  351.92627  353.11975  
261  871  436.3612  248.44469  502.13135  
262  499  337.72726  -502.5088  605.4542  
263  218  0.0035705566  65.22034  65.22034  
264  52  358.10083  191.91267  406.28397  
265  0  355.83142  26.58252  356.82297  
266  0  434.90515  0.4303589  434.90536  
267  0  332.95905  -155.27582  367.38577  
268  0  306.6059  245.36671  392.69836  
269  82  2444.2112  714.5189  2546.5085  
270  487  -330.25058  -401.13168  519.5884  
271  916  -442.3292  -171.39868  474.37604  
272  1023  -87.57945  138.8627  164.17372  
273  1023  85.87332  1.2134094  85.8819  
274  1023  124.04089  -58.85446  137.29527  
275  1023  74.87344  -237.9248  249.42783  
276  1023  -296.589  -94.09802  311.15826  
277  1023  -31.02298  271.0837  272.85306  
278  1023  399.25705  -107.49753  413.4754  
279  1023  -112.51149  -307.05304  327.01743  
280  1023  -168.24142  111.44272  201.80351  
281  715  29.309906  105.11948  109.129166  
282  373  26.555756  53.132324  59.39909  
283  136  49.520416  -90.42828  103.099686  
284  5  -423.4535  -162.90103  453.7065  
285  0  -791.08765  497.02954  934.26874  
286  0  3392.8047  -493.74847  3428.5437  
287  0  670.86804  -353.15173  758.1425  
288  140  160.9018  -37.999573  165.32802  
289  227  309.1207  95.26062  323.4659  
290  670  313.74734  58.777435  319.20557  
291  1023  440.35382  -27.435059  441.20764  
292  1023  198.91602  -276.13278  340.31882  
293  1023  -155.51451  37.94983  160.07796  
294  1023  368.98032  272.3693  458.6191  
295  1023  502.9251  -299.7135  585.4587  
296  1023  45.12152  -243.98099  248.11827  
297  1023  130.82748  47.600952  139.2181  
298  1023  217.29745  12.823029  217.67548  
299  1023  320.44522  35.261505  322.37946  
300  947  322.72842  -274.3894  423.60736  
301  565  -135.58554  -144.71536  198.30779  
302  263  148.09116  504.95844  526.2262  
303  75  524.5304  -181.23706  554.95856  
304  0  125.44629  -337.29944  359.87177  
305  0  0.06726074  2.790039  2.7908497  
306  0  150.63489  15.814087  151.46272  
307  0  214.1636  95.94757  234.67422  
308  30  409.44263  -92.61774  419.78723  
309  402  35.496704  -264.3398  266.7125  
310  843  -176.86885  699.64685  721.6566  
311  1023  409.76294  133.22185  430.87555  
312  1023  286.9517  -348.10492  451.13004  
313  1023  29.835358  -149.0765  152.03273  
314  1023  139.86407  -16.68863  140.8562  
315  1023  189.0776  9.480499  189.31512  
316  1023  409.91876  -37.861755  411.66357  
317  1023  252.44376  -453.3569  518.903  
318  1023  -56.54248  -128.21252  140.12674  
319  1023  494.01227  158.91702  518.9439  
320  787  556.4147  -278.5412  622.2399  
321  428  195.51654  -343.15323  394.94412  
322  172  209.72156  -169.69028  269.77383  
323  23  261.23282  -170.3287  311.85648  
324  0  507.44977  -133.68094  524.7627  
325  0  810.6721  -688.8882  1063.8403  
326  0  988.6614  -1422.0383  1731.9481  
327  0  -1947.0581  2269.196  2990.031  
328  153  -155.2943  562.5448  583.5863  
329  584  -244.65625  80.61659  257.59604  
330  993  -239.07169  181.13437  299.94156  
331  1023  -188.07497  180.6791  260.80093  
332  1023  -78.38388  331.02863  340.18228  
333  1023  209.89966  104.65527  234.54337  
334  1023  -300.8758  -260.0343  397.67334  
335  1023  -195.66188  187.64828  271.10043  
336  1023  299.8546  236.93123  382.16382  
337  1023  253.44391  -158.1643  298.74698  
338  1023  11.71933  -86.844574  87.631744  
339  1018  27.671082  -17.42511  32.70051  
340  633  -18.531952  116.48341  117.94838  
341  311  339.54813  123.76117  361.39972  
342  101  277.66135  -331.12384  432.13287  
343  0  -441.95724  -279.79544  523.07904  
344  0  159.25848  377.74246  409.94223  
345  0  342.759  -57.38652  347.5298  
346  0  67.936005  -169.04665  182.1869  
347  0  20.76535  -115.73976  117.58781  
348  318  -76.68692  -43.2715  88.052864  
349  764  135.32315  130.79498  188.20117  
350  1023  363.78088  -444.30933  574.23627  
351  1023  -335.7486  2524.1433  2546.3752  
352  1023  -154.33432  513.9339  536.60706  
353  1023  261.2019  234.83401  351.24557  
354  1023  92.137115  -40.173584  100.5145  
355  1023  -25.265472  17.51706  30.743967  
356  1023  -91.64639  18.908783  93.57673  
357  1023  -55.970795  289.5857  294.94507  
358  1023  332.45303  91.11521  344.71292  
359  861  130.90396  -372.9008  395.20987  
360  490  -311.49384  221.58621  382.26804  
361  212  142.21484  343.9295  372.17276  
362  45  147.56116  -18.790527  148.75275  
363  0  -59.9516  -11.393631  61.024662  
364  0  -170.43369  -50.916122  177.87662  
365  0  -387.0291  164.90527  420.6962  
366  0  -238.95831  280.13437  368.20694  
367  89  -1701.0793  -72.06482  1702.6051  
368  499  1468.3207  -238.69855  1487.5962  
369  928  638.56396  276.15128  695.71796  
370  1023  686.1675  -8.784393  686.2237  
371  1023  420.96478  -113.32793  435.95248  
372  1023  303.31845  -122.12973  326.98282  
373  1023  66.19711  -32.112343  73.57486  
374  1023  234.07602  297.96063  378.90912  
375  1023  645.8063  -28.352562  646.42834  
376  1023  66.22241  -406.22342  411.58582  
377  1023  0.7070923  178.58365  178.58505  
378  1023  394.9192  158.79352  425.64838  
379  705  316.64688  -58.55654  322.01572  
380  364  269.73334  -64.50954  277.34012  
381  132  82.5975  -118.85364  144.73608  
382  3  72.40402  264.52094  274.2511  
383  0  510.58307  173.36732  539.21356  
384  0  172.56265  -120.65407  210.55943  
385  0  -131.54153  40.573463  137.65675  
386  0  238.26685  245.32094  341.9846  
387  238  313.94836  7.4276314  314.03622  
388  681  290.65857  -47.40553  294.49905  
389  1023  177.61404  -169.53662  245.53903  
390  1023  -53.84613  67.50331  86.348724  
391  1023  419.73877  301.14072  516.5911  
392  1023  141.76685  -223.50934  264.67767  
393  1023  -168.4112  -266.34375  315.12112  
394  1023  17.381653  171.60399  172.48203  
395  1023  274.9972  23.095024  275.96527  
396  1023  217.30466  -60.887455  225.67365  
397  1023  231.05273  -188.25241  298.03412  
398  935  -105.94098  -161.54907  193.18797  
399  555  121.445465  226.34314  256.86615  
400  257  524.99786  0.626963  524.9982  
401  71  121.692444  -227.30328  257.82907  
402  0  -107.00894  159.63293  192.18112  
403  0  229.29697  184.44577  294.27426  
404  0  217.72644  59.90535  225.8173  
405  0  275.3823  -24.901564  276.50586  
406  37  18.17099  -174.04422  174.99022  
407  413  -169.75104  263.7428  313.649  
408  852  140.43314  223.0129  263.54547  
409  1023  420.99225  -302.32193  518.29816  
410  1023  -52.867035  -69.202515  87.085655  
411  1023  175.03113  166.62987  241.66383  
412  1023  291.73773  46.177303  295.3697  
413  1023  315.17477  -10.405998  315.3465  
414  1023  239.44827  -246.65184  343.76242  
415  1023  -131.62698  -42.169067  138.21683  
416  1023  172.64218  120.096344  210.30562  
417  1023  510.6267  -174.031  539.4687  
418  777  72.55847  -265.66602  275.39636  
419  421  83.024506  116.963486  143.43474  
420  167  268.78604  62.87941  276.04303  
421  21  317.71573  57.971268  322.9612  
422  0  394.8828  -160.79219  426.36435  
423  0  -0.36383057  -178.8771  178.87747  
424  0  67.468506  402.40936  408.0261  
425  0  646.2777  26.831116  646.8344  
426  163  235.31479  -298.62454  380.1969  
427  596  66.68475  30.68251  73.404854  
428  996  303.49557  121.150375  326.78278  
429  1023  420.51993  112.39366  435.28076  
430  1023  686.5939  7.542877  686.6353  
431  1023  638.5067  -276.45316  695.7853  
432  1023  1464.5363  239.70882  1484.0238  
433  1023  -1703.7428  67.65173  1705.0854  
434  1023  -239.34409  -285.59406  372.6252  
435  1023  -387.64023  -168.26392  422.58456  
436  1023  -168.67868  50.58171  176.09943  
437  1009  -60.04245  10.068039  60.880714  
438  623  147.17007  16.32779  148.07306  
439  305  143.15921  -345.33032  373.8283  
440  97  -312.68484  -225.03497  385.2435  
441  0  129.986  371.19858  393.29984  
442  0  332.9237  -92.84071  345.62637  
443  0  -54.7872  -292.38553  297.47427  
444  0  -91.148224  -19.952606  93.30651  
445  0  -23.733398  -18.681808  30.204042  
446  329  92.92285  37.76497  100.30379  
447  774  260.27292  -234.70082  350.46606  
448  1023  -151.97049  -519.1924  540.9767  
449  1023  -330.1478  -2526.1445  2547.627  
450  1023  364.12897  445.08966  575.0606  
451  1023  136.36453  -132.039  189.8146  
452  1023  -76.38843  43.398438  87.85565  
453  1023  21.8609  114.973145  117.033005  
454  1023  68.60068  166.57845  180.15114  
455  1023  343.90402  55.809784  348.40308  
456  1023  158.39142  -378.07843  409.91602  
457  850  -441.38947  277.38855  521.31476  
458  482  281.57138  326.23016  430.93918  
459  206  340.13626  -124.594185  362.23804  
460  42  -19.925781  -117.5742  119.2507  
461  0  29.97528  14.83577  33.44574  
462  0  11.604187  86.027725  86.80684  
463  0  254.46738  157.54945  299.29163  
464  0  298.16718  -239.25067  382.28857  
465  99  -194.63464  -188.94464  271.26135  
466  513  -300.51038  256.3199  394.9764  
467  936  212.20639  -105.25775  236.87708  
468  1023  -77.91171  -333.04764  342.03943  
469  1023  -188.27554  -182.7204  262.36316  
470  1023  -239.25044  -183.41077  301.46356  
471  1023  -242.48749  -81.96704  255.96637  
472  1023  -152.80377  -565.76855  586.04016  
473  1023  -1939.8945  -2271.034  2986.7686  
474  1023  988.15393  1423.3885  1732.7675  
475  1023  810.92346  690.27936  1064.9331  
476  1023  505.92218  135.47198  523.74603  
477  691  261.0486  168.93396  310.94223  
478  354  209.39539  168.93518  269.0456  
479  126  197.84125  340.50644  393.80933  
480  0  556.71796  277.36578  621.9861  
481  0  496.27625  -159.14777  521.17  
482  0  -56.397156  126.73639  138.71825  
483  0  252.98193  451.56357  517.59973  
484  0  411.5136  36.72757  413.14932  
485  254  189.17874  -10.963745  189.49617  
486  697  141.19614  16.636597  142.17287  
487  1023  30.563599  149.60953  152.69952  
488  1023  287.7903  347.1183  450.90396  
489  1023  411.92932  -134.85278  433.44092  
490  1023  -175.085  -701.0847  722.61646  
491  1023  37.003235  264.7162  267.28992  
492  1023  409.78488  90.7431  419.71176  
493  1023  214.698  -97.723755  235.89227  
494  1023  150.2844  -17.78656  151.33327  
495  1023  -0.10067749  -4.108307  4.1095405  
496  921  124.42868  336.92596  359.1679  
497  542  527.44824  180.04697  557.33167  
498  247  149.45688  -504.23187  525.9155  
499  66  -135.11662  143.73404  197.27133  
500  0  324.49823  272.87872  423.98337  
501  0  320.2875  -36.314697  322.33963  
502  0  221.4133  -15.560791  221.95943  
503  0  130.18765  -49.756958  139.37209  
504  45  45.89322  241.58932  245.90971  
505  429  503.0388  298.7962  585.08734  
506  868  369.88107  -274.33136  460.51028  
507  1023  -152.93628  -40.447296  158.19447  
508  1023  199.98987  275.04257  340.06522  
509  1023  440.63412  27.375519  441.4837  
510  1023  311.5489  -57.435303  316.79886  
511  1023  313.81534  -99.112  329.0946  
512  1023  162.91565  37.64325  167.20802  
513  1023  672.49457  353.76758  759.8687  
514  1023  3392.0947  498.56647  3428.5386  
515  1023  -792.0784  -502.842  938.2102  
516  764  -422.92163  161.68823  452.77563  
517  410  51.38919  91.6311  105.05764  
518  160  27.23944  -54.524994  60.95049  
519  17  30.121674  -108.14407  112.26066  
520  0  -168.97952  -108.26126  200.68527  
521  0  -110.48239  305.1036  324.49124  
522  0  398.94556  107.42221  413.15506  
523  0  -30.732529  -275.88647  277.59293  
524  176  -295.95547  92.03537  309.93573  
525  611  76.0907  235.12247  247.12823  
526  1010  125.590485  58.339966  138.47932  
527  1023  87.13791  -1.5351562  87.15143  
528  1023  -86.48489  -140.42166  164.9178  
529  1023  -439.4808  169.38812  470.9944  
530  1023  -329.44064  400.81372  518.82825  
531  1023  2447.5488  -712.2619  2549.0808  
532  1023  308.9736  -246.37947  395.1804  
533  1023  333.7803  152.9631  367.16074  
534  1023  435.1272  -2.8431091  435.13647  
535  997  356.1041  -26.789825  357.11038  
536  611  358.05933  -189.97675  405.3365  
537  296  0.57066345  -66.69226  66.6947  
538  93  338.84302  500.57672  604.4763  
539  0  438.11923  -250.56802  504.71063  
540  0  35.065384  -352.4064  354.14667  
541  0  -66.76492  90.48129  112.44741  
542  0  209.09334  88.67212  227.11841  
543  2  225.6732  22.905273  226.83264  
544  343  293.52585  -64.17572  300.45956  
545  789  -11.03891  -192.0917  192.40863  
546  1023  -100.726395  285.83478  303.06323  
547  1023  452.40286  418.41068  616.2271  
548  1023  256.57294  -488.34818  551.6463  
549  1023  -36.142273  -139.03613  143.65692  
550  1023  218.0036  61.59143  226.53714  
551  1023  287.7541  -39.968567  290.5166  
552  1023  423.40814  -99.23709  434.8821  
553  1023  344.6292  -440.6744  559.4312  
554  1023  127.39134  -271.77728  300.15237  
555  837  8384.942  -5314.0186  9927.036  
556  470  179.35681  -87.8197  199.70268  
557  199  -162.30183  -118.624664  201.03157  
558  38  -21.938126  108.4422  110.639015  
559  0  129.88753  55.366577  141.19571  
560  0  198.66422  20.927643  199.76344  
561  0  262.7619  -211.92104  337.57123  
562  0  -165.98132  -176.11017  242.00122  
563  103  -69.31115  374.6981  381.05472  
564  527  500.16235  38.43103  501.63663  
565  948  57.7594  -325.03006  330.12222  
566  1023  -78.36786  -0.67233276  78.37074  
567  1023  80.61051  78.32773  112.397896  
568  1023  148.92899  80.16702  169.13484  
569  1023  331.75702  -61.897644  337.4819  
570  1023  -4.112793  -340.72324  340.74805  
571  1023  -55.657585  64.875  85.47826  
572  1023  301.16058  246.80222  389.37006  
573  1023  309.55664  -280.9475  418.03925  
574  1023  -36.721092  -101.068726  107.532906  
575  681  98.63665  45.435883  108.59837  
576  347  135.79398  42.65515  142.33575  
577  121  338.9975  6.838257  339.06647  
578  0  248.22064  -351.4331  430.25424  
579  0  -364.8374  -120.84564  384.3306  
580  0  265.7709  301.8329  402.1657  
581  0  451.85352  -209.70364  498.14377  
582  0  34.732994  -339.1717  340.94547  
583  263  19.290264  -105.30182  107.05413  
584  708  58.68463  -79.34769  98.69114  
585  1023  174.51082  5.8606873  174.6092  
586  1023  298.25708  -315.028  433.82016  
587  1023  -170.70505  -342.97867  383.1117  
588  1023  -139.15514  78.28073  159.66222  
589  1023  355.2696  -152.60541  386.65863  
590  1023  94.746216  -491.99304  501.03293  
591  1023  -91.36784  -298.15698  311.84238  
592  1023  -60.358036  -320.97012  326.59595  
593  1023  -75.347885  -279.46008  289.43954  
594  912  135.71324  -635.8507  650.1724  
595  534  -462.87213  -1756.7375  1816.6941  
596  242  4313.656  8442.31  9480.518  
597  64  991.53424  1276.311  1616.2024  
598  0  660.10944  295.96155  723.42084  
599  0  294.95462  198.30408  355.4191  
600  0  273.17572  212.78027  346.2664  
601  0  235.0863  222.71997  323.836  
602  53  480.482  260.55533  546.58215  
603  441  383.01743  -227.6166  445.54648  
604  878  -22.546045  -116.840576  118.99599  
605  1023  185.4248  239.98654  303.2753  
606  1023  502.26645  -106.31149  513.3943  
607  1023  198.98709  -280.0597  343.55392  
608  1023  111.48469  -149.47675  186.47287  
609  1023  45.33568  -114.87189  123.49443  
610  1023  175.193  67.72357  187.82722  
611  1023  422.75235  -379.0124  567.7763  
612  1023  -254.9669  -954.6599  988.1213  
613  1023  169.85782  504.33963  532.1749  
614  754  518.3204  207.56073  558.33453  
615  403  314.85367  -165.98654  355.92746  
616  157  166.47125  -129.17096  210.70789  
617  15  91.22968  -129.90704  158.74097  
618  0  113.11623  110.12009  157.86613  
619  0  468.50568  21.872345  469.01596  
620  0  -27.006142  -151.05798  153.45308  
621  0  -130.17204  -211.86377  248.65843  
622  186  239.56354  -19.376373  240.34586  
623  624  328.0794  -419.2622  532.36914  
624  1016  109.07387  -482.81802  494.9852  
625  1023  40.519073  -517.2686  518.85315  
626  1023  -143.19781  -405.82587  430.349  
627  1023  173.62662  -334.7047  377.05893  
628  1023  189.24518  -941.6418  960.4702  
629  1023  -617.297  -961.7957  1142.8502  
630  1023  -266.64624  -618.3469  673.3893  
631  1023  -57.532166  -1028.4263  1030.0343  
632  1023  -381.22754  -1410.95  1461.5452  
633  985  -701.81305  -1801.4854  1933.3627  
634  601  -1314.3768  -2415.5325  2749.9788  
635  288  -2051.4573  -3489.1714  4047.5664  
636  89  -5118.9834  -9573.68  10856.304  
637  0  13896.568  21341.121  25466.803  
638  0  3534.8865  5345.093  6408.2324  
639  0  2474.6711  3164.8955  4017.5317  
640  0  1936.7524  2069.0796  2834.096  
641  9  1548.3948  1640.7538  2256.0142  
642  357  1291.9492  1248.9161  1796.9208  
643  802  1074.6014  1398.1001  1763.3639  
644  1023  1450.6577  1256.1348  1918.9274  
645  1023  1217.8552  477.17554  1308.0015  
646  1023  784.4547  794.36926  1116.4192  
647  1023  1088.3628  976.79034  1462.4135  
648  1023  1228.2213  674.1975  1401.096  
649  1023  1073.4274  563.9456  1212.5514  
650  1023  990.0821  425.77643  1077.7515  
651  1023  713.46967  563.5896  909.2152  
652  1023  1020.3669  784.7771  1287.2544  
653  825  890.57666  586.4551  1066.3285  
654  460  993.89374  95.63037  998.4838  
655  192  967.96204  603.193  1140.5228  
656  34  1218.7561  462.04233  1303.3993  
657  0  1172.7765  335.3515  1219.7809  
658  0  1177.3953  232.45135  1200.1222  
659  0  928.61475  230.88858  956.8882  
660  0  1034.1746  668.9238  1231.6559  
661  101  1695.79  119.927826  1700.0254  
662  540  1149.7819  -75.05676  1152.2291  
663  960  1015.1995  317.0955  1063.5693  
664  1023  1457.1606  389.646  1508.3572  
665  1023  1551.9661  192.92151  1563.911  
666  1023  1662.3278  114.39279  1666.259  
667  1023  1580.429  -94.48413  1583.2507  
668  1023  1533.5374  202.32751  1546.8268  
669  1023  2155.0728  277.04504  2172.8076  
670  1023  2421.3535  -297.89032  2439.609  
671  1023  2170.0317  -203.73694  2179.5747  
672  1023  2733.1992  21.31009  2733.2822  
673  670  3332.3862  -237.57477  3340.8442  
674  338  4185.585  -481.31842  4213.1685  
675  116  5562.547  -1028.4324  5656.819  
676  0  8426.451  -1656.1182  8587.654  
677  0  24796.934  -4547.007  25210.379  
678  0  -25228.225  5865.041  25901.004  
679  0  -8162.2466  2034.9595  8412.094  
680  0  -4726.02  1563.5385  4977.9434  
681  276  -3066.9395  1203.9146  3294.773  
682  722  -2285.7544  945.98956  2473.7764  
683  1023  -1640.8052  712.06885  1788.654  
684  1023  -1664.5215  521.8499  1744.408  
685  1023  -1476.4653  780.2003  1669.9288  
686  1023  -606.315  727.5687  947.08716  
687  1023  -672.6251  239.2648  713.9133  
688  1023  -815.0569  540.4352  977.95087  
689  1023  -478.7751  631.0779  792.1394  
690  1023  -333.03677  516.2699  614.36804  
691  1023  -108.537506  412.10815  426.16138  
692  899  -227.68817  85.99988  243.38834  
693  523  -402.1118  446.53793  600.90765  
694  234  367.7058  360.54047  514.97284  
695  61  224.00345  115.23425  251.9057  
696  0  -157.96564  148.90244  217.08311  
697  0  0.06430054  351.5894  351.5894  
698  0  159.07379  265.34882  309.37753  
699  0  343.91507  242.70038  420.9288  
700  62  405.38654  -94.803986  416.32446  
701  456  46.12741  -69.24548  83.202614  
702  890  -194.61713  565.2523  597.8177  
703  1023  605.4584  0.44665527  605.45856  
704  1023  345.27484  -347.7259  490.0286  
705  1023  316.2882  -79.12164  326.03445  
706  1023  547.7858  -129.72198  562.93616  
707  1023  706.4789  -168.58432  726.3147  
708  1023  994.3512  -516.1974  1120.3544  
709  1023  762.9215  -837.078  1132.585  
710  1023  805.9677  -457.95074  926.9859  
711  1023  1522.8066  -851.4877  1744.698  
712  741  1568.4785  -1500.1184  2170.364  
713  393  1583.0762  -1757.1746  2365.12  
714  149  2129.0498  -2196.8137  3059.2227  
715  12  2827.4185  -3172.665  4249.7173  
716  0  4302.8813  -5118.418  6686.7773  
717  0  7073.2505  -10088.576  12321.13  
718  0  27132.701  -41024.27  49185.1  
719  0  -14378.795  23703.434  27723.682  
720  199  -5323.659  9876.126  11219.591  
721  638  -3521.04  6446.1997  7345.149  
722  1023  -2512.2124  5196.698  5772.078  
723  1023  -1984.0906  4399.008  4825.7524  
724  1023  -1373.0815  3987.909  4217.6733  
725  1023  -1045.2697  3246.6626  3410.778  
726  1023  -1337.2377  2925.9287  3217.027  
727  1023  -889.5577  3315.6482  3432.9048  
728  1023  -409.87894  2943.232  2971.635  
729  1023  -582.0791  2559.6738  2625.023  
730  1023  -596.15173  2716.2288  2780.8804  
731  972  -484.45532  2700.6416  2743.7495  
732  589  -314.68442  2834.1987  2851.6152  
733  280  95.07852  2619.9697  2621.6943  
734  84  -123.48816  2320.7292  2324.0125  
735  0  -1190.3822  2121.428  2432.5842  
736  0  109.25253  2802.9573  2805.0857  
737  0  139.00906  2423.5598  2427.5432  
738  0  -24.659851  2533.6187  2533.7385  
739  15  98.58951  2660.7046  2662.5305  
740  370  124.85483  2854.416  2857.1453  
741  814  538.8345  2930.7554  2979.8774  
742  1023  523.4823  2466.2417  2521.1865  
743  1023  63.476166  3031.9302  3032.5945  
744  1023  569.31213  3362.34  3410.1975  
745  1023  926.61597  3139.8247  3273.7007  
746  1023  778.4652  3216.9912  3309.8398  
747  1023  877.93994  3500.9434  3609.3467  
748  1023  944.36847  3813.7412  3928.9253  
749  1023  1382.3552  4323.4316  4539.0493  
750  1023  1835.4181  4289.664  4665.831  
751  813  1664.7446  4486.164  4785.0854  
752  450  1932.8379  5832.617  6144.533  
753  186  2823.5293  6351.263  6950.6016  
754  31  3342.1785  7162.1035  7903.536  
755  0  4092.0852  8756.259  9665.259  
756  0  5590.0596  11357.684  12658.82  
757  0  8636.52  16626.791  18736.053  
758  0  17123.465  29539.125  34143.418  
759  103  115973.51  196278.02  227980.08  
760  555  -25195.523  -40307.426  47534.227  
761  968  -11675.856  -17613.748  21132.197  
762  1023  -7614.712  -11312.514  13636.598  
763  1023  -5913.439  -8180.7266  10094.209  
764  1023  -4853.8345  -6490.975  8105.089  
765  1023  -4298.226  -4986.276  6583.137  
766  1023  -3418.1782  -4070.7188  5315.514  
767  1023  -2817.1624  -4072.8813  4952.2485  
768  1023  -3217.6057  -3380.5662  4667.035  
769  1023  -2699.9849  -2508.6306  3685.532  
770  1023  -2267.8262  -2408.9678  3308.4983  
771  656  -2304.8286  -2265.933  3232.1335  
772  328  -2214.343  -2066.6904  3028.9478  
773  110  -2322.442  -1791.3074  2933.005  
774  0  -2009.8497  -1279.3132  2382.4648  
775  0  -1749.5706  -1444.6559  2268.9265  
776  0  -1545.429  -1738.7218  2326.264  
777  0  -1929.6753  -1032.6636  2188.6162  
778  0  -1524.6577  -954.8223  1798.9628  
779  293  -1522.9166  -1077.8619  1865.7603  
780  738  -1525.7006  -970.77356  1808.3594  
781  1023  -1649.1274  -923.1925  1889.9485  
782  1023  -1620.909  -457.0244  1684.1073  
783  1023  -926.3463  -237.57225  956.3253  
784  1023  -1575.5608  -1353.4768  2077.0872  
785  1023  -1800.5044  -751.9682  1951.2233  
786  1023  -1361.4562  -409.55872  1421.7247  
787  1023  -1258.212  -589.0101  1389.2554  
788  1023  -1284.0259  -566.70276  1403.5222  
789  1023  -1354.9553  -640.5857  1498.7509  
790  885  -1553.1818  -382.1814  1599.5112  
791  511  -1076.1509  -117.13897  1082.5074  
792  226  -978.20667  -460.54855  1081.2  
793  56  -1524.7908  -449.1491  1589.5667  
794  0  -1393.4082  -10.181723  1393.4453  
795  0  -1125.6028  -134.21687  1133.5765  
796  0  -1164.9562  -170.24442  1177.3301  
797  0  -1138.9626  -242.26007  1164.4423  
798  72  -1413.1213  -178.8399  1424.3931  
799  471  -1093.5057  321.59628  1139.8153  
