n v(n)    Re(T)       Im(T)        Mod(T) 
   
0  100  81670.0  0.0  81670.0  
1  108  -78.30338  168.64412  185.93617  
2  119  -400.6443  -253.15863  473.92526  
3  91  31.072914  -197.36981  199.80083  
4  91  409.07153  265.43042  487.64005  
5  95  256.0368  129.92757  287.11673  
6  101  -40.47335  7.8847814  41.234234  
7  112  223.12662  -212.89726  308.40027  
8  97  -428.10583  39.757847  429.94803  
9  113  118.20339  -0.03140211  118.2034  
10  107  -113.76143  -211.85371  240.4655  
11  109  -86.34402  56.03931  102.93539  
12  100  211.52838  -146.71591  257.42923  
13  80  95.37955  26.569696  99.01115  
14  100  -135.48721  -86.30739  160.64168  
15  103  -12.458656  83.117355  84.0459  
16  96  -201.13223  -20.602654  202.18468  
17  112  49.816948  271.02554  275.56592  
18  106  188.29684  -179.59259  260.20993  
19  84  246.97314  72.46539  257.38486  
20  104  319.4295  278.16196  423.56732  
21  111  -269.11798  -351.52594  442.7132  
22  107  128.77902  1.0360641  128.78319  
23  102  3.1129608  163.6195  163.64912  
24  108  -123.46289  252.58975  281.14883  
25  99  -113.21631  52.16763  124.657104  
26  104  65.98178  32.56563  73.58067  
27  109  121.63458  26.857258  124.56438  
28  91  239.74411  -40.955124  243.2171  
29  104  144.74422  -145.83635  205.47295  
30  102  328.56244  -219.85646  395.33548  
31  97  -78.13487  -215.5205  229.2469  
32  124  -405.48206  324.88098  519.57996  
33  93  43.34906  109.65043  117.90826  
34  94  188.64737  159.02693  246.73344  
35  105  -13.821739  156.36783  156.97751  
36  113  -64.42994  73.72434  97.91065  
37  111  -34.916122  -169.78227  173.33539  
38  113  294.99896  242.09601  381.62137  
39  95  205.89284  3.9214993  205.93018  
40  86  -262.48056  175.91248  315.97665  
41  108  -300.84943  -133.81557  329.26733  
42  113  -72.369514  -217.984  229.68318  
43  88  -119.08144  171.05264  208.4212  
44  102  -171.14328  149.76898  227.42201  
45  92  -14.442093  58.40365  60.16278  
46  94  168.80034  -394.94482  429.5055  
47  118  -93.5823  -202.72269  223.2804  
48  106  258.1715  122.42261  285.72684  
49  100  -64.297195  -238.8452  247.34825  
50  102  -9.556801  -10.08939  13.8970585  
51  98  53.891678  21.93285  58.183872  
52  103  -57.86355  329.25266  334.29852  
53  89  85.41793  -142.14832  165.83838  
54  90  61.71057  188.15294  198.01445  
55  109  -59.401375  154.38467  165.4181  
56  101  -246.24539  -211.95013  324.89944  
57  112  -350.6361  -139.68604  377.4359  
58  93  119.28777  -156.39693  196.69664  
59  87  -45.33673  356.12643  359.00064  
60  99  -229.07138  -153.84113  275.93622  
61  117  14.871475  113.69883  114.66728  
62  109  164.42856  169.63495  236.24725  
63  103  87.5834  34.851437  94.262794  
64  99  67.72656  30.072609  74.10296  
65  100  228.46086  226.22632  321.51627  
66  91  -111.98379  -105.67983  153.97595  
67  92  63.580704  -50.204144  81.01211  
68  113  174.45956  294.40656  342.21536  
69  88  132.07526  163.87024  210.4693  
70  108  -202.80124  -286.26532  350.82214  
71  94  52.96194  -23.192307  57.817387  
72  84  199.30064  -239.96776  311.93793  
73  112  83.21791  -29.013733  88.130684  
74  97  22.353241  331.13828  331.89188  
75  91  95.02045  152.48932  179.67159  
76  93  156.74448  179.24509  238.11264  
77  102  -51.338554  174.60593  181.99692  
78  101  -183.43443  139.19551  230.2685  
79  95  -142.53436  49.993507  151.04767  
80  94  -53.522255  -205.26718  212.13026  
81  104  40.403717  -243.59784  246.92583  
82  96  254.31827  320.1589  408.8759  
83  120  122.073  76.138466  143.87106  
84  95  -136.53525  -264.31454  297.4963  
85  110  285.42435  236.32367  370.56165  
86  115  -42.605545  -70.90048  82.71706  
87  100  178.98808  -205.3371  272.39688  
88  116  110.01533  -62.325172  126.44287  
89  119  -49.814133  434.63422  437.47955  
90  102  192.03851  -105.63829  219.17627  
91  100  159.45848  -285.72617  327.2101  
92  104  235.87508  83.38815  250.1812  
93  95  -102.41387  99.37365  142.70152  
94  112  -8.853966  303.69193  303.82095  
95  97  -47.34974  -160.63327  167.46655  
96  80  56.257782  365.9335  370.23273  
97  97  139.83444  66.453094  154.82146  
98  86  -204.50372  -51.860962  210.97708  
99  91  -154.7373  -151.94193  216.86397  
100  92  -316.16248  147.10129  348.70834  
101  107  274.13208  -116.60666  297.90186  
102  92  198.27988  -158.29744  253.71834  
103  105  115.74745  -187.05753  219.9727  
104  94  428.26343  -48.33306  430.98218  
105  102  -251.40903  -46.407623  255.65634  
106  97  141.19592  -167.02002  218.70523  
107  104  44.308815  5.628456  44.66487  
108  102  -200.44086  -118.283875  232.73936  
109  101  -205.31668  141.78185  249.5136  
110  91  94.11912  -71.02771  117.91244  
111  97  234.8789  -83.68799  249.3427  
112  100  -253.71704  -180.89616  311.60193  
113  103  -76.05703  -100.187065  125.78601  
114  94  56.012306  38.17198  67.782585  
115  108  47.41039  79.034615  92.16406  
116  116  -54.806137  -277.69608  283.05267  
117  116  -0.51703644  -152.47961  152.4805  
118  103  241.9829  -210.20314  320.5325  
119  95  -259.96356  -120.96694  286.72992  
120  108  54.611313  -330.2049  334.6904  
121  97  -62.226246  36.52545  72.1541  
122  104  -157.86372  -186.47578  244.32391  
123  109  -166.29091  -35.606308  170.06021  
124  122  -43.21392  117.61833  125.30569  
125  99  -86.25543  282.44766  295.3247  
126  98  205.36972  -28.577003  207.34842  
127  108  -29.473576  150.448  153.30783  
128  107  -17.33776  198.16313  198.92014  
129  94  -67.39636  -58.031944  88.93805  
130  103  69.24643  -128.95062  146.36711  
131  90  29.002796  -57.35975  64.275215  
132  115  167.3302  -4.761322  167.39793  
133  107  43.967762  -157.5774  163.59645  
134  107  -218.64203  88.44078  235.85188  
135  107  -9.055855  87.1764  87.64549  
136  94  -14.477226  -230.16702  230.62187  
137  101  -114.479385  -112.63142  160.59691  
138  123  58.857346  -0.6327591  58.860744  
139  108  -121.12506  67.48894  138.65799  
140  109  12.82766  -139.50648  140.095  
141  98  -249.22507  182.71529  309.02753  
142  116  16.226341  19.472107  25.346737  
143  112  -24.035004  -85.55005  88.862206  
144  96  193.33388  2.850853  193.3549  
145  101  105.444855  -69.32821  126.19437  
146  106  30.62983  -192.74551  195.16408  
147  101  -176.15073  -9.376045  176.40009  
148  103  122.7318  66.97807  139.8183  
149  104  1.0848656  6.015007  6.112057  
150  105  -16.31075  152.05634  152.92865  
151  96  363.2469  60.774033  368.29578  
152  104  212.85316  -0.21520233  212.85327  
153  97  12.56657  99.63025  100.41965  
154  99  -49.301983  -74.75393  89.54795  
155  86  193.31465  -330.0301  382.47928  
156  102  -21.027557  70.72758  73.787186  
157  98  260.74725  -449.81583  519.92633  
158  107  -22.153938  -443.706  444.25873  
159  120  62.212006  -481.4616  485.46432  
160  107  -262.89975  58.1235  269.24826  
161  106  -90.68474  196.16772  216.11455  
162  102  69.10846  -294.14227  302.1517  
163  101  2.9543648  -435.7182  435.7282  
164  113  -84.65151  67.52919  108.28698  
165  122  9.382273  9.522461  13.368032  
166  98  85.05725  70.36491  110.390015  
167  102  -66.92761  41.165222  78.57404  
168  124  -70.0294  92.1313  115.72508  
169  97  211.83119  47.953426  217.19113  
170  94  117.36933  273.31174  297.44727  
171  96  3.7730293  344.32324  344.3439  
172  103  -173.4548  -258.10495  310.97385  
173  112  -35.019897  72.7442  80.734825  
174  111  154.08664  -158.36745  220.95914  
175  89  -61.928955  -219.66666  228.22935  
176  97  98.61948  -129.73618  162.96404  
177  107  24.106968  41.935192  48.370506  
178  104  -285.3278  -126.84456  312.2523  
179  101  -114.55282  24.91018  117.229965  
180  104  231.85538  36.42717  234.6995  
181  90  -11.7499485  62.02366  63.126823  
182  122  -175.02797  -323.03745  367.4071  
183  92  -121.07788  181.9675  218.56812  
184  108  -47.262978  86.05029  98.17557  
185  99  375.96436  50.399696  379.32745  
186  97  262.64136  -2.0833511  262.64963  
187  111  53.037533  -124.55436  135.37639  
188  104  31.341934  174.0223  176.82216  
189  122  -28.79997  254.93277  256.55438  
190  93  8.466306  -185.22218  185.41557  
191  102  -401.47525  187.16924  442.9613  
192  110  -206.4477  32.134384  208.93364  
193  97  369.37875  27.17601  370.37708  
194  105  -182.29744  68.684784  194.80748  
195  116  -99.997086  488.73093  498.85605  
196  106  -67.373344  -75.40958  101.12256  
197  96  -2.6517048  -210.206  210.22272  
198  106  -53.16868  89.867584  104.41787  
199  103  137.21265  175.61253  222.8611  
200  93  -66.07905  -92.135345  113.38149  
201  95  -38.749474  -75.39213  84.7673  
202  94  -340.97018  263.2513  430.76898  
203  113  -203.45552  -25.429924  205.0386  
204  112  -223.67357  5.1327133  223.73245  
205  85  -23.293364  92.27383  95.16848  
206  99  -58.81067  15.437187  60.80297  
207  100  -50.226612  38.31172  63.17041  
208  101  1.4117255  222.53004  222.53452  
209  95  -181.70786  -233.66962  296.00546  
210  101  -251.69513  -132.15817  284.28192  
211  97  -369.36618  -28.903442  370.49533  
212  127  55.576866  42.122597  69.73594  
213  106  266.44315  218.215  344.39764  
214  99  -132.26428  2.1784592  132.28223  
215  95  47.731236  -156.84697  163.94891  
216  107  -49.47141  -48.24446  69.101  
217  104  10.537255  175.3277  175.64406  
218  89  -168.19432  137.99081  217.55643  
219  104  -93.45978  186.142  208.28725  
220  93  315.97974  -65.75176  322.74835  
221  96  -10.188141  74.565834  75.25864  
222  110  -245.86969  142.32764  284.0934  
223  103  -8.073597  -110.62124  110.91547  
224  99  -132.30386  48.553116  140.93161  
225  105  204.92574  168.4931  265.30075  
226  82  139.95331  -45.34726  147.11662  
227  82  -202.40018  121.00275  235.81242  
228  101  -158.81534  -57.787994  169.00226  
229  103  123.61853  6.5  123.7893  
230  109  22.401247  -210.53375  211.72217  
231  114  117.17177  153.10272  192.79437  
232  112  -34.933556  -43.840332  56.056473  
233  115  232.91612  196.0394  304.43616  
234  96  -207.0509  71.546844  219.064  
235  95  -121.90112  -114.82304  167.46407  
236  89  -94.21051  -68.12651  116.261955  
237  117  127.370224  -46.32656  135.53348  
238  93  83.634705  144.27243  166.7612  
239  93  -320.2972  -282.3957  427.0101  
240  97  -214.33028  -149.3948  261.25903  
241  105  58.90668  -87.046295  105.10497  
242  108  -139.67955  -87.485146  164.81512  
243  102  -300.76968  -199.81158  361.09152  
244  110  119.65895  -104.534134  158.8888  
245  116  -112.89493  172.72592  206.34802  
246  92  21.187382  93.789856  96.15322  
247  113  59.872112  206.36703  214.87677  
248  108  -62.62433  -128.99449  143.39241  
249  112  215.63797  208.06256  299.6494  
250  90  -82.87871  186.27728  203.88258  
251  86  -277.48306  140.56227  311.05402  
252  92  147.37405  27.197708  149.86269  
253  118  -99.40839  -76.596794  125.4954  
254  98  -195.52194  -107.16387  222.96394  
255  93  -391.07858  -135.71066  413.95633  
256  104  -186.71716  -184.21786  262.29663  
257  89  -191.1528  -76.752396  205.98622  
258  107  -284.69238  -51.944733  289.3925  
259  102  157.42703  140.70078  211.13972  
260  96  -180.99513  26.477257  182.92152  
261  111  -222.63617  134.00264  259.85297  
262  108  57.56951  246.75932  253.3859  
263  97  -264.84042  193.58603  328.04877  
264  97  -412.0625  -868.53827  961.3294  
265  104  -7.0512657  -68.86318  69.22324  
266  121  269.0226  14.649483  269.42117  
267  97  -94.92026  239.29936  257.43744  
268  101  267.68805  -213.38339  342.3293  
269  116  -176.51434  248.28214  304.63312  
270  111  472.21945  249.7627  534.20276  
271  107  188.25557  395.11078  437.66733  
272  106  146.85957  -262.27106  300.58917  
273  96  219.68997  -400.01157  456.3693  
274  92  191.75096  -106.905556  219.53867  
275  102  28.21474  -55.28047  62.0645  
276  99  116.80559  -255.28673  280.73984  
277  106  177.08519  179.85086  252.39948  
278  101  61.56517  2.1817856  61.60382  
279  93  -188.69975  -225.36113  293.93066  
280  120  194.0765  -47.247437  199.74487  
281  92  58.455757  -193.92532  202.54408  
282  105  33.703114  78.31635  85.26049  
283  99  -160.93361  -186.99533  246.71214  
284  92  -198.60623  200.02446  281.87625  
285  109  -143.52979  -103.01426  176.67126  
286  99  -13.820499  -15.616501  20.853807  
287  101  59.036835  -85.02884  103.514496  
288  97  169.29532  -78.58058  186.64354  
289  95  117.505005  173.28403  209.36757  
290  102  -5.988411  294.30292  294.36383  
291  112  -12.750259  325.90567  326.155  
292  102  -166.40948  -477.3711  505.54453  
293  95  -312.7655  -73.684326  321.32794  
294  95  92.431114  296.37323  310.45224  
295  98  223.89622  6.500107  223.99055  
296  91  -165.264  112.84399  200.11485  
297  93  124.81337  -25.540787  127.3998  
298  91  -73.773605  -188.40527  202.33412  
299  109  -209.8731  9.769936  210.10037  
300  83  141.97789  25.359898  144.22498  
301  100  -563.9611  133.10834  579.45667  
302  100  -135.75214  -98.23833  167.56912  
303  93  154.59161  69.107155  169.33507  
304  90  16.21814  309.0938  309.519  
305  93  -482.40652  -95.61242  491.7904  
306  93  250.18222  -1.7219009  250.18814  
307  91  256.414  -51.114983  261.45914  
308  110  61.822746  0.7411041  61.82719  
309  89  81.95278  -102.80371  131.47191  
310  100  -143.73688  -343.75745  372.59827  
311  98  -202.16843  -100.691154  225.85567  
312  114  -187.96706  -92.19266  209.35878  
313  107  12.295158  124.65106  125.255974  
314  100  -36.992363  13.256439  39.295906  
315  106  -69.72012  72.40647  100.51663  
316  102  -140.91968  265.01263  300.15005  
317  108  268.4416  27.582924  269.85498  
318  105  -18.42974  248.75262  249.4344  
319  103  20.053604  180.30536  181.41711  
320  110  -97.349045  246.01633  264.57678  
321  102  247.63947  -172.00352  301.5137  
322  106  48.91397  71.85571  86.924225  
323  103  -197.15787  53.99261  204.4173  
324  101  34.46856  16.858273  38.37034  
325  86  116.47246  261.50162  286.26724  
326  107  230.50235  -71.00089  241.18968  
327  98  241.80688  -43.067886  245.61232  
328  96  168.49847  274.0121  321.67432  
329  102  121.53715  -34.27063  126.2765  
330  93  -34.032345  251.73425  254.02428  
331  124  103.98257  -6.6240044  104.19334  
332  116  -353.83612  -106.534706  369.52625  
333  89  178.42245  -58.566635  187.78877  
334  115  176.18631  64.91943  187.7662  
335  88  -61.831482  210.64381  219.5312  
336  104  -440.41647  -97.23846  451.02325  
337  107  0.5639725  485.12482  485.12515  
338  102  -23.773972  -264.81927  265.88428  
339  104  -12.1553955  38.46042  40.33556  
340  100  207.87227  -135.0429  247.88599  
341  94  -38.36888  78.52174  87.39471  
342  92  -164.40878  217.28386  272.47482  
343  95  135.88647  68.98027  152.3923  
344  94  -258.25986  -311.58224  404.69946  
345  97  -116.48093  62.38501  132.13515  
346  120  -113.60945  162.3145  198.12396  
347  110  82.49161  -28.221668  87.18559  
348  111  301.17096  -32.177784  302.88504  
349  121  -282.3019  -160.64413  324.80902  
350  106  128.46661  -7.7485123  128.70007  
351  99  197.21747  30.1278  199.50542  
352  100  -25.076561  -145.08298  147.23418  
353  102  235.09631  162.44255  285.7584  
354  98  16.387444  -47.43335  50.18437  
355  113  330.2041  -126.49667  353.60452  
356  116  138.96223  89.34596  165.20654  
357  101  52.185112  60.510323  79.904854  
358  104  -81.87605  -117.173096  142.94482  
359  99  62.61006  -182.96513  193.38112  
360  100  179.69385  148.3803  233.03775  
361  108  -174.75853  279.6693  329.78094  
362  102  -168.07547  4.5723343  168.13765  
363  114  -91.45792  145.94025  172.2298  
364  95  123.8662  -191.05078  227.6911  
365  122  13.141075  -115.3865  116.132385  
366  102  411.29315  -290.99524  503.82565  
367  113  85.47069  158.55832  180.12767  
368  114  -194.93329  -2.3211899  194.94711  
369  97  234.7857  -71.09639  245.31413  
370  97  -222.51086  -96.140335  242.39235  
371  102  -191.23962  77.32762  206.28174  
372  97  58.51136  92.00547  109.03479  
373  109  137.5263  219.47603  259.00427  
374  110  22.862175  -78.5567  81.81586  
375  92  248.49113  -96.971306  266.74197  
376  97  -16.515366  322.20758  322.63058  
377  106  -117.12492  74.42924  138.77306  
378  88  -52.974754  -317.03577  321.43118  
379  106  236.17072  95.57804  254.77788  
380  101  -104.432495  226.69696  249.59499  
381  90  -48.470425  86.650345  99.28577  
382  110  186.47714  -65.27204  197.57066  
383  98  -216.90572  -24.105835  218.2411  
384  98  -245.30019  48.352432  250.02028  
385  85  -283.0604  151.50153  321.05435  
386  92  -141.60934  -310.4883  341.2568  
387  95  -222.55011  132.96837  259.24725  
388  108  197.48996  -54.91861  204.98375  
389  104  -309.53833  -311.55957  439.18488  
390  89  109.54935  -295.70667  315.34662  
391  96  -125.53801  38.800354  131.39734  
392  108  -52.024605  -142.44356  151.64671  
393  88  154.28613  -183.73994  239.9262  
394  125  381.39594  345.61026  514.6934  
395  95  291.13977  241.74986  378.42484  
396  98  87.7185  -21.414915  90.29471  
397  101  -183.45404  -6.059392  183.55408  
398  109  26.895615  45.735126  53.05729  
399  90  -73.224785  156.98482  173.22269  
400  103  -13.999664  -0.25404245  14.001969  
401  112  -72.81183  -157.42943  173.45198  
402  98  27.088257  -45.837185  53.24304  
403  100  -183.42786  5.2443266  183.5028  
404  94  88.064766  21.285706  90.600685  
405  97  291.97296  -241.60239  378.9722  
406  107  382.00485  -344.72937  514.5542  
407  98  153.32483  184.33304  239.76483  
408  95  -52.66134  142.40475  151.82994  
409  97  -125.66824  -39.012424  131.58449  
410  97  108.88435  296.03256  315.4221  
411  88  -310.64413  310.27945  439.05936  
412  96  197.35373  54.876892  204.84132  
413  106  -222.52377  -133.59346  259.54584  
414  110  -142.36636  309.86102  341.00153  
415  107  -282.85873  -152.61955  321.40594  
416  106  -245.05481  -49.05901  249.91728  
417  96  -216.48181  23.270947  217.72899  
418  107  186.62567  65.31107  197.72374  
419  110  -48.208412  -87.35784  99.77697  
420  92  -103.80081  -227.25557  249.83936  
421  92  236.59619  -94.977684  254.94807  
422  112  -53.70403  316.58624  321.10898  
423  104  -116.823746  -75.23244  138.95218  
424  101  -15.4017105  -322.60065  322.9681  
425  96  248.53938  97.43361  266.9553  
426  95  22.876984  78.284355  81.55855  
427  106  138.01804  -219.52159  259.3043  
428  95  58.563957  -92.00083  109.05911  
429  117  -191.3216  -77.70551  206.49963  
430  104  -222.44843  95.59259  242.11824  
431  107  234.88708  71.33109  245.47926  
432  97  -194.87943  1.6878357  194.88673  
433  108  86.10689  -158.24101  180.15164  
434  105  410.65472  291.45322  503.56955  
435  92  12.598907  114.95502  115.64337  
436  96  123.395515  190.95496  227.3549  
437  100  -91.477325  -146.5565  172.76259  
438  97  -168.24945  -5.2942905  168.33272  
439  118  -173.90875  -280.27435  329.84537  
440  107  180.16934  -147.96352  233.13986  
441  92  62.094536  183.08415  193.32755  
442  114  -81.94614  116.640945  142.54921  
443  98  52.60646  -60.785374  80.38844  
444  99  139.4407  -88.98049  165.41232  
445  99  329.95273  127.15074  353.60446  
446  108  16.304  47.153664  49.89277  
447  101  235.13297  -162.10968  285.5995  
448  96  -25.312378  144.67497  146.87262  
449  90  197.12619  -29.935116  199.38617  
450  105  128.21176  7.832905  128.4508  
451  91  -282.7225  159.76067  324.7391  
452  92  301.12778  32.41318  302.86722  
453  111  82.173485  27.998837  86.81254  
454  101  -113.560234  -162.89178  198.56903  
455  106  -116.55428  -62.6521  132.32607  
456  98  -259.1977  310.74036  404.65173  
457  104  136.19177  -69.303055  152.81071  
458  98  -163.32494  -218.48982  272.78717  
459  108  -38.00418  -78.764786  87.45404  
460  118  207.59395  135.17099  247.72252  
461  97  -12.14756  -38.892574  40.7455  
462  114  -24.3768  264.24957  265.37155  
463  96  1.3862534  -485.54092  485.5429  
464  106  -440.92157  95.99875  451.25113  
465  89  -60.960243  -210.91443  219.54736  
466  100  176.84088  -64.696266  188.30376  
467  111  178.53386  58.909275  188.00171  
468  102  -354.06183  105.556305  369.46167  
469  116  104.14454  6.328701  104.336655  
470  107  -33.252243  -251.97115  254.15579  
471  103  121.86439  34.357563  126.61505  
472  104  169.30966  -273.79562  321.91583  
473  104  241.91238  43.62212  245.81393  
474  97  230.29543  70.77173  240.92451  
475  111  116.82606  -261.54413  286.4501  
476  111  34.038544  -16.669918  37.9013  
477  106  -196.93597  -54.519295  204.34317  
478  95  49.042084  -71.818115  86.965324  
479  94  247.68927  172.17555  301.65277  
480  107  -97.16245  -246.58702  265.03906  
481  104  20.407745  -180.38312  181.53386  
482  101  -18.017212  -248.83905  249.49046  
483  100  268.3424  -27.174171  269.7148  
484  107  -140.60173  -265.4433  300.3814  
485  110  -69.84794  -72.33785  100.555954  
486  98  -36.902485  -13.134842  39.170364  
487  96  12.391426  -124.18209  124.7988  
488  100  -188.23035  92.05682  209.53549  
489  106  -202.14925  100.40618  225.71158  
490  90  -144.27478  343.3878  372.4653  
491  102  82.08085  102.64162  131.42514  
492  105  61.937927  -1.0743942  61.947247  
493  90  256.26895  51.556023  261.4035  
494  105  249.84286  1.735321  249.84889  
495  97  -482.9082  94.1788  492.00607  
496  97  16.893127  -309.4299  309.8907  
497  97  154.67773  -68.85054  169.30917  
498  109  -136.24928  98.181114  167.93867  
499  108  -563.58826  -134.38138  579.38763  
500  90  142.35995  -25.11869  144.559  
501  112  -209.88503  -10.192764  210.13237  
502  102  -73.32057  187.7266  201.53705  
503  95  124.77518  25.351791  127.324615  
504  94  -164.86798  -113.47884  200.14719  
505  102  224.09045  -6.252983  224.17769  
506  98  92.94675  -296.2916  310.5283  
507  112  -313.02386  73.157104  321.459  
508  95  -167.03566  476.48138  504.91132  
509  95  -11.890991  -326.39047  326.60703  
510  113  -5.2803802  -294.25543  294.3028  
511  97  118.74067  -173.29196  210.0701  
512  91  169.17813  79.07284  186.74516  
513  100  58.739098  85.22858  103.50938  
514  112  -13.964584  15.558731  20.906548  
515  116  -143.61288  102.308014  176.32808  
516  106  -197.9078  -200.29376  281.57608  
517  114  -160.90085  186.79373  246.538  
518  97  34.325684  -78.221146  85.42131  
519  105  58.325844  193.86797  202.4517  
520  90  193.68254  48.28411  199.61032  
521  101  -188.95248  224.69339  293.5816  
522  97  62.027203  -2.3115158  62.070255  
523  98  177.55853  -179.97496  252.82013  
524  91  116.32351  255.41998  280.66086  
525  108  28.381233  54.845108  61.753384  
526  102  191.79843  107.31165  219.77814  
527  102  219.06581  400.18768  456.22363  
528  110  146.26727  261.77786  299.86957  
529  101  189.45349  -395.34924  438.39896  
530  82  472.13113  -248.6176  533.5902  
531  111  -176.37558  -248.64465  304.84833  
532  89  267.19318  213.9313  342.28467  
533  95  -94.80449  -239.66173  257.73172  
534  112  268.53043  -13.936905  268.89185  
535  92  -7.8919067  69.26516  69.7133  
536  114  -414.29858  867.3283  961.19806  
537  107  -264.4179  -195.04831  328.5737  
538  112  57.990223  -247.14554  253.8578  
539  92  -222.5265  -134.68054  260.10938  
540  114  -180.07153  -26.79589  182.05432  
541  108  157.66739  -140.34615  211.08304  
542  104  -284.95087  51.39199  289.54816  
543  94  -191.2329  76.46142  205.95235  
544  111  -187.1036  183.68198  262.19617  
545  93  -391.23395  134.35257  413.66  
546  123  -195.40666  106.28017  222.43929  
547  105  -99.47238  76.1556  125.27741  
548  103  147.57452  -27.558289  150.12561  
549  116  -276.849  -141.61865  310.96817  
550  100  -82.072296  -186.82263  204.05528  
551  105  216.25035  -207.62424  299.78665  
552  102  -62.920017  128.70935  143.26558  
553  118  60.28694  -206.34854  214.97496  
554  110  21.450638  -93.758514  96.18102  
555  120  -112.439995  -172.73593  206.10786  
556  102  119.54672  105.0247  159.12764  
557  99  -300.88034  199.3052  360.90378  
558  88  -139.39612  86.970375  164.30193  
559  94  58.815945  87.11916  105.11453  
560  117  -214.60007  148.77399  261.1262  
561  97  -320.33542  281.26135  426.2895  
562  108  84.34185  -144.14307  167.0053  
563  111  127.33808  46.070374  135.41591  
564  110  -94.341415  67.92259  116.24879  
565  112  -121.90393  114.16302  167.01425  
566  106  -206.46729  -72.44208  218.8072  
567  94  233.73848  -195.84833  304.94302  
568  122  -34.71364  43.58834  55.72235  
569  91  118.09339  -153.16434  193.40466  
570  94  22.461882  210.5134  211.70834  
571  88  123.70242  -6.601021  123.87842  
572  92  -159.00977  57.107117  168.95363  
573  109  -201.83784  -121.78783  235.73457  
574  118  140.05536  45.43415  147.24051  
575  105  205.21037  -168.2331  265.35574  
576  93  -132.16203  -49.075375  140.97942  
577  109  -8.271118  110.33264  110.64223  
578  111  -245.61905  -143.21909  284.3245  
579  96  -9.5898075  -74.785416  75.397766  
580  99  316.03595  66.11058  322.87665  
581  115  -93.03684  -186.56323  208.47469  
582  102  -167.97922  -138.19547  217.52013  
583  113  11.396498  -175.21811  175.58835  
584  113  -49.330536  48.219482  68.98275  
585  94  47.337288  156.93399  163.91795  
586  102  -132.10051  -2.7621384  132.12938  
587  99  266.88647  -217.88312  344.53076  
588  95  55.21685  -42.11316  69.44364  
589  136  -369.60477  28.17112  370.67682  
590  106  -251.80925  131.69983  284.17026  
591  128  -181.90056  232.75769  295.40472  
592  108  2.2143703  -222.96393  222.97493  
593  124  -50.466927  -38.677162  63.58328  
594  109  -58.679916  -15.732338  60.752274  
595  112  -23.06179  -92.6134  95.44154  
596  91  -223.5552  -5.6899185  223.62761  
597  113  -203.41989  24.662231  204.90944  
598  105  -340.02417  -264.27798  430.64984  
599  96  -39.208755  76.6539  86.09963  
600  98  -65.61893  91.61502  112.69054  
601  116  137.95256  -175.39444  223.14595  
602  85  -52.73778  -89.80339  104.14376  
603  83  -2.5566516  209.68626  209.70184  
604  115  -67.22397  74.58759  100.41101  
605  95  -98.70723  -489.20837  499.06708  
606  89  -181.58311  -68.92913  194.22578  
607  109  369.45688  -26.47248  370.40408  
608  102  -206.44492  -32.667953  209.01364  
609  102  -400.64865  -188.00278  442.5657  
610  124  8.77373  185.1031  185.31091  
611  112  -27.74722  -255.10364  256.60822  
612  101  32.447464  -173.96947  176.96953  
613  111  53.484127  124.820786  135.79684  
614  106  262.97263  2.6193314  262.98566  
615  109  375.48846  -49.507126  378.7381  
616  102  -47.091183  -86.13386  98.16629  
617  97  -120.392395  -181.80742  218.05565  
618  110  -175.14081  322.68384  367.15005  
619  101  -11.275991  -62.22075  63.234245  
620  104  232.27376  -35.968216  235.04214  
621  101  -114.37121  -25.082489  117.0893  
622  104  -285.15378  126.328354  311.88385  
623  116  24.867937  -41.973946  48.787567  
624  93  98.73897  129.99068  163.23897  
625  112  -61.918434  219.43436  228.00291  
626  111  154.11967  158.39386  221.00111  
627  96  -34.28857  -74.3403  81.86688  
628  93  -173.66035  257.2525  310.38165  
629  107  5.1631966  -344.66104  344.6997  
630  99  118.472855  -273.2046  297.7861  
631  121  212.06969  -47.48323  217.32051  
632  94  -69.75723  -92.43782  115.80511  
633  111  -66.44092  -41.09427  78.12256  
634  128  85.52245  -70.07553  110.56523  
635  110  9.547096  -9.318893  13.341246  
636  109  -84.18519  -67.34178  107.805664  
637  102  2.4241295  436.03516  436.0419  
638  95  68.886055  293.91675  301.88135  
639  90  -90.13966  -196.44403  216.1375  
640  97  -262.07272  -58.120827  268.4402  
641  88  61.76172  481.96176  485.90292  
642  98  -22.359768  443.66498  444.22806  
643  96  260.31467  449.52954  519.4618  
644  113  -20.41312  -71.21417  74.08208  
645  100  193.01082  329.81897  382.14362  
646  94  -49.039024  73.9746  88.752846  
647  102  13.314507  -100.24611  101.12645  
648  95  213.47035  0.104385376  213.47038  
649  113  363.5286  -60.382774  368.50934  
650  100  -15.836384  -152.34009  153.16101  
651  104  1.5338364  -6.312042  6.495732  
652  107  123.00624  -66.83058  139.98878  
653  102  -175.91493  8.953552  176.14264  
654  109  30.635502  192.89252  195.31017  
655  103  105.66901  68.81516  126.10101  
656  100  193.51994  -2.6742172  193.53842  
657  83  -24.252125  85.25659  88.638885  
658  112  16.37259  -19.83609  25.720266  
659  107  -248.55096  -183.32684  308.84674  
660  96  12.881191  139.49007  140.08356  
661  109  -120.46022  -67.84075  138.2499  
662  104  59.066696  0.65935516  59.070377  
663  99  -114.29372  112.36136  160.27516  
664  112  -14.684864  229.8588  230.3274  
665  93  -8.457222  -87.59991  88.0072  
666  99  -218.07646  -89.128494  235.587  
667  107  44.26986  157.66017  163.7576  
668  114  168.20227  4.6321793  168.26604  
669  101  29.437134  56.72255  63.90612  
670  91  69.28852  128.44748  145.94402  
671  104  -67.17452  57.349594  88.32549  
672  116  -16.549229  -198.71045  199.3984  
673  109  -28.824303  -150.76106  153.49182  
674  88  205.70554  28.820877  207.71474  
675  106  -85.66853  -282.78555  295.47717  
676  101  -42.827515  -117.97066  125.504074  
677  88  -165.61426  35.4701  169.37004  
678  114  -157.84459  186.17056  244.07866  
679  92  -61.55279  -36.595497  71.60989  
680  120  54.621784  330.37628  334.8612  
681  85  -259.92828  120.03572  286.30627  
682  98  242.14406  210.57748  320.89972  
683  109  -0.5164795  152.24371  152.2446  
684  104  -54.792793  277.3132  282.67447  
685  92  48.176468  -79.46006  92.92402  
686  99  56.357574  -38.698944  68.36508  
687  89  -75.93921  99.883415  125.472946  
688  91  -253.30795  180.26718  310.9038  
689  110  235.45172  83.6836  249.88089  
690  98  94.18138  70.67068  117.74751  
691  104  -204.61429  -142.33047  249.24881  
692  119  -200.06702  117.86234  232.20323  
693  99  45.364616  -5.6131516  45.710567  
694  93  141.4748  167.27129  219.07716  
695  109  -250.49948  45.525253  254.6027  
696  89  429.28473  49.3014  432.10648  
697  96  115.76912  186.97737  219.91595  
698  93  198.21878  158.10318  253.5494  
699  97  274.06848  116.542175  297.81808  
700  100  -315.6406  -148.25  348.72202  
701  100  -154.45813  151.24344  216.1756  
702  96  -203.942  50.88421  210.19406  
703  93  140.72551  -66.6781  155.72296  
704  109  57.60614  -366.1619  370.66562  
705  91  -46.76941  160.09013  166.78198  
706  96  -7.5364456  -304.0178  304.1112  
707  92  -101.42119  -99.61315  142.1585  
708  93  236.80267  -82.925995  250.90282  
709  93  159.20883  285.8558  327.20175  
710  101  192.31389  105.53444  219.36761  
711  97  -48.237297  -435.27985  437.94452  
712  85  110.50836  62.6211  127.017715  
713  110  179.34753  205.06271  272.4266  
714  116  -42.29023  70.55087  82.25503  
715  101  284.84976  -235.87015  369.82986  
716  103  -136.47563  263.52576  296.7683  
717  99  123.057434  -76.63435  144.96881  
718  88  255.42009  -319.83676  409.31036  
719  111  40.246902  243.7001  247.00113  
720  97  -53.48156  204.4747  211.35321  
721  96  -141.90915  -50.709454  150.69724  
722  119  -182.40247  -140.125  230.01234  
723  111  -50.025414  -175.3121  182.30983  
724  103  158.45969  -178.69974  238.83691  
725  104  96.13491  -152.22032  180.03595  
726  92  23.790146  -331.07947  331.9331  
727  89  83.82155  29.453873  88.84583  
728  96  199.3663  240.46794  312.36478  
729  97  53.730206  23.747856  58.744324  
730  89  -202.66937  285.3949  350.0359  
731  107  133.33101  -164.2669  211.56741  
732  103  175.9549  -294.5529  343.1057  
733  99  64.20168  49.961227  81.35097  
734  102  -111.41667  105.113144  153.17458  
735  111  229.62134  -226.17781  322.30786  
736  98  68.41434  -30.14885  74.76279  
737  110  88.42116  -34.859512  95.044655  
738  94  165.15564  -169.47458  236.63899  
739  108  15.524689  -113.459625  114.51682  
740  86  -228.8825  153.26854  275.46045  
741  112  -43.634956  -356.2143  358.8769  
742  83  119.53427  156.983  197.31221  
743  92  -350.24744  138.84909  376.76562  
744  96  -245.74335  211.19301  324.02512  
745  106  -57.79509  -155.05777  165.47865  
746  101  63.39718  -188.28223  198.66907  
747  115  86.12423  141.72333  165.83994  
748  109  -56.240036  -329.59784  334.3616  
749  103  55.071136  -21.620117  59.16299  
750  89  -8.473694  10.140049  13.2145405  
751  114  -63.39769  238.71178  246.987  
752  107  259.78455  -122.43134  287.18884  
753  109  -92.37488  201.92633  222.05261  
754  101  169.0422  394.79974  429.46722  
755  119  -12.820854  -59.371124  60.739647  
756  105  -170.21402  -150.18909  227.00127  
757  106  -117.52546  -171.35452  207.785  
758  88  -71.65597  217.91583  229.3946  
759  94  -299.77136  132.53851  327.76413  
760  84  -260.44614  -176.92986  314.85928  
761  112  207.81107  -3.780075  207.84544  
762  103  296.99026  -241.43968  382.7484  
763  93  -33.93457  169.64818  173.00883  
764  107  -62.855522  -74.335884  97.34804  
765  100  -12.078781  -156.62643  157.09149  
766  108  190.39772  -158.94673  248.02289  
767  104  44.901955  -109.442116  118.295235  
768  104  -403.17154  -325.53683  518.1906  
769  87  -76.43524  215.70935  228.8512  
770  112  330.23282  220.39722  397.02475  
771  105  146.26418  145.86626  206.5676  
772  98  241.46829  41.17104  244.95303  
773  101  123.40164  -27.023115  126.32582  
774  114  67.71123  -33.000298  75.32483  
775  103  -111.72557  -52.190147  123.31429  
776  96  -120.43052  -253.39987  280.56195  
777  97  5.7517853  -163.57127  163.67238  
778  102  131.2295  -0.70314217  131.23138  
779  91  -267.00916  350.69263  440.77115  
780  115  323.34216  -277.40915  426.03522  
781  84  249.96227  -72.40909  260.23877  
782  108  190.64928  179.7363  262.0158  
783  100  53.326782  -271.03452  276.2308  
784  84  -197.99509  20.225777  199.02547  
785  100  -8.6336975  -83.07344  83.520874  
786  108  -131.6824  85.97885  157.26608  
787  101  99.8129  -26.387793  103.242096  
788  99  215.34436  147.17264  260.83133  
789  106  -81.679214  -56.59622  99.371155  
790  104  -109.03894  211.39462  237.85957  
791  111  123.87795  0.18923283  123.8781  
792  103  -421.3502  -40.732327  423.31442  
793  88  230.94276  213.17546  314.29022  
794  102  -31.684464  -8.5087  32.80706  
795  119  266.55908  -129.83351  296.497  
796  102  421.9562  -264.59656  498.0546  
797  100  46.95185  197.44926  202.9549  
798  107  -376.2716  252.09084  452.91293  
799  106  -28.108696  -169.0775  171.39807  
