n v(n)    Re(T)       Im(T)        Mod(T) 
   
0  88  81851.0  0.0  81851.0  
1  97  -107.76874  -343.5829  360.08792  
2  86  -182.19705  135.3295  226.95778  
3  94  -4.4349823  376.07645  376.1026  
4  113  -265.99756  319.51822  415.74823  
5  96  -327.51788  -32.31642  329.10837  
6  99  45.65026  -84.42601  95.977585  
7  92  277.31216  -184.67589  333.17746  
8  106  -65.65866  101.012474  120.47646  
9  93  18.98362  -71.23155  73.71779  
10  99  155.9927  112.03466  192.05595  
11  96  -125.8667  23.039608  127.958  
12  95  -132.87708  103.25052  168.27652  
13  98  16.675034  -317.50662  317.94418  
14  98  -118.796776  -106.166504  159.32356  
15  97  -149.05737  66.57249  163.24826  
16  96  23.311539  -241.29716  242.42061  
17  112  -428.7868  303.50366  525.33093  
18  106  -52.04872  81.28482  96.520935  
19  114  -72.048584  29.364174  77.80266  
20  102  -51.274338  73.18534  89.35968  
21  103  188.62085  31.441399  191.22339  
22  105  17.212631  354.33246  354.75027  
23  113  50.506958  138.28389  147.21884  
24  84  -113.989365  53.983643  126.12616  
25  112  -296.36618  43.601997  299.55643  
26  96  -6.2734985  523.30615  523.34375  
27  102  3.1637115  -154.11101  154.14348  
28  108  -123.45231  -39.470528  129.60863  
29  120  49.054016  -103.10074  114.17556  
30  103  50.232346  -2.7922478  50.30989  
31  102  254.09964  -382.2554  459.00525  
32  89  96.24979  -136.24814  166.816  
33  99  -84.45887  284.90802  297.16306  
34  105  -56.20572  157.91516  167.61945  
35  93  -26.421608  375.81976  376.74738  
36  100  110.788994  -10.23864  111.26109  
37  105  -119.37979  123.24984  171.58688  
38  98  197.89914  -240.79483  311.6829  
39  98  -76.01089  40.634117  86.19041  
40  108  82.94967  -98.02928  128.4149  
41  101  -25.151398  180.41357  182.15831  
42  96  -32.486664  -96.40071  101.72748  
43  94  389.8382  15.839682  390.15985  
44  96  421.74835  94.91366  432.2965  
45  115  41.843544  125.677  132.45978  
46  94  -35.08339  -107.27341  112.86465  
47  89  -358.19708  56.031235  362.55295  
48  86  -115.474365  145.2266  185.54001  
49  80  -25.370247  164.2618  166.20946  
50  83  3.7371292  0.04065323  3.7373505  
51  108  163.48546  171.69994  237.08302  
52  107  -257.64664  72.797104  267.73346  
53  107  -43.796257  7.5056267  44.434746  
54  105  -529.1836  31.948238  530.1471  
55  108  168.80896  -177.95413  245.2838  
56  84  8.782532  252.37286  252.52563  
57  109  140.21391  -84.98724  163.95967  
58  99  -99.50609  272.46637  290.0679  
59  100  59.237656  62.329266  85.98859  
60  97  -81.036964  -21.393356  83.81328  
61  91  92.308044  -39.298176  100.32508  
62  109  -200.55774  -197.81381  281.6979  
63  111  -290.70917  -114.34123  312.38715  
64  99  156.50253  106.096146  189.07521  
65  109  -130.393  140.4381  191.63818  
66  111  -165.50632  229.45966  282.92062  
67  96  -109.304375  22.910305  111.67958  
68  91  -316.39233  -121.31883  338.8545  
69  92  -438.0967  -74.73059  444.42477  
70  105  -621.2724  189.40733  649.5033  
71  100  53.545357  36.821774  64.984215  
72  105  -309.20065  59.3504  314.8452  
73  105  106.43996  135.14987  172.03185  
74  107  1.021019  -65.28262  65.2906  
75  102  56.556538  -10.174538  57.46445  
76  104  36.23897  168.43369  172.28804  
77  98  216.62813  -126.6329  250.92557  
78  107  -128.52446  -152.31386  199.29387  
79  106  -150.19028  -53.002796  159.26837  
80  93  -15.132011  22.388851  27.022924  
81  103  -244.40404  -128.29938  276.0327  
82  109  -28.831673  -34.041134  44.610134  
83  94  126.9312  129.8622  181.59218  
84  119  122.85611  -19.297302  124.36241  
85  110  -30.424446  238.3566  240.29048  
86  107  142.4068  58.680325  154.02298  
87  82  -274.40656  360.74936  453.25388  
88  114  334.12268  -16.142181  334.5124  
89  108  -105.31142  213.4185  237.98729  
90  85  -168.73477  -437.76773  469.16098  
91  104  -123.77037  -228.94681  260.26093  
92  111  28.885262  -348.60098  349.79565  
93  98  -23.582882  -99.87883  102.625206  
94  103  -44.88555  362.29312  365.06305  
95  96  5.9177704  -243.20387  243.27586  
96  105  -30.861347  -208.57315  210.84396  
97  104  -220.47433  -119.69052  250.868  
98  103  -178.41965  83.54147  197.00952  
99  81  98.78389  180.63649  205.88297  
100  106  -249.51392  -162.53413  297.7827  
101  88  -201.65762  122.33507  235.86366  
102  93  234.54507  189.36935  301.45007  
103  91  -141.99205  154.85619  210.1004  
104  106  -165.69403  -96.65317  191.82375  
105  94  -265.1145  29.740597  266.77744  
106  102  -18.12289  -129.17798  130.44305  
107  106  289.8569  -170.38252  336.22498  
108  124  -71.68567  112.722115  133.58559  
109  109  -134.69885  -137.51743  192.49629  
110  125  438.3277  41.904404  440.3262  
111  101  20.012493  -588.28107  588.6214  
112  107  140.16507  394.48932  418.6503  
113  113  29.39364  -154.34036  157.1144  
114  97  -52.09613  248.79147  254.18733  
115  100  -25.57785  43.402496  50.378597  
116  96  110.13353  26.38198  113.2493  
117  107  -464.7293  -149.93304  488.31674  
118  109  -133.42514  72.93598  152.05896  
119  96  -83.06113  111.67035  139.17406  
120  106  180.9396  -39.21746  185.14088  
121  94  51.870426  184.53255  191.68413  
122  98  14.744083  146.79842  147.53699  
123  102  -13.264145  -77.67121  78.79565  
124  100  206.0679  -10.308899  206.3256  
125  112  -44.312565  15.414131  46.916935  
126  120  147.19113  -93.18297  174.20761  
127  93  -127.79745  -153.15393  199.47008  
128  107  -222.55252  158.7627  273.37744  
129  103  -167.95906  -87.8133  189.52948  
130  105  -3.8985023  -71.10059  71.20739  
131  114  193.6937  -84.17654  211.19408  
132  103  -109.03186  408.31192  422.6187  
133  105  128.57358  170.14903  213.26477  
134  108  79.00104  156.2619  175.09695  
135  112  184.19713  213.1768  281.73203  
136  108  -200.84349  410.9  457.35864  
137  96  -53.67677  -259.45996  264.95407  
138  87  82.19643  265.2949  277.73663  
139  99  116.75543  167.00284  203.76894  
140  104  -50.60267  -172.08182  179.36774  
141  105  152.96324  98.53746  181.95435  
142  106  62.480656  218.91539  227.65715  
143  96  21.280659  -93.436775  95.82952  
144  109  -40.031654  28.959099  49.408123  
145  123  -329.1127  -28.296753  330.32693  
146  116  -270.85904  -10.245712  271.05276  
147  97  -276.6309  155.03163  317.1111  
148  99  58.140587  -61.787506  84.84116  
149  96  -15.749619  -292.5827  293.0063  
150  100  -312.7971  121.4149  335.5348  
151  98  -235.67247  20.533852  236.56532  
152  102  -259.55093  -29.636223  261.23743  
153  119  -113.27192  98.34888  150.0101  
154  87  343.37878  -187.78354  391.37152  
155  109  -21.367619  318.03058  318.7476  
156  115  -331.8015  -241.7208  410.51334  
157  101  -188.33936  -70.2153  201.00223  
158  98  27.624445  -78.65258  83.36269  
159  104  192.0059  238.0864  305.86176  
160  104  -62.402313  1.1865311  62.413593  
161  125  -26.43083  -34.659027  43.58712  
162  98  -264.9347  -63.62287  272.46698  
163  85  -34.608536  160.51825  164.20676  
164  111  87.77832  -137.17828  162.85857  
165  95  130.73087  -79.73911  153.13028  
166  97  -103.401436  -65.16395  122.22192  
167  112  1.6277905  208.03741  208.04378  
168  102  -292.89124  -382.35556  481.64413  
169  112  245.15605  57.4519  251.79796  
170  81  11.366127  169.29974  169.68085  
171  104  348.65372  -106.55897  364.57404  
172  119  -13.724987  189.04062  189.53821  
173  94  -114.054436  -83.37741  141.2806  
174  102  -171.19043  -22.937027  172.72021  
175  108  12.156849  -114.67321  115.3158  
176  99  32.32148  -79.83942  86.13368  
177  110  346.4386  115.94888  365.32703  
178  95  -152.95673  95.16462  180.14456  
179  128  67.31915  88.0597  110.84394  
180  107  132.5252  -88.16362  159.17209  
181  104  -78.65181  75.6501  109.12857  
182  104  12.335544  217.46515  217.81473  
183  100  149.28049  -38.034103  154.04953  
184  104  -152.49792  -58.53534  163.34627  
185  107  -171.90594  -190.48444  256.58524  
186  106  -128.76328  -153.71281  200.51836  
187  99  57.466427  83.73862  101.560555  
188  111  -402.98923  7.279007  403.05496  
189  106  153.23645  17.446098  154.22638  
190  82  4.9972377  101.00595  101.12949  
191  111  182.92024  -314.8352  364.11676  
192  98  -82.4214  49.770008  96.282616  
193  90  309.8555  -233.97752  388.27298  
194  94  -110.30498  -172.25287  204.54398  
195  111  1.7102962  101.208916  101.22336  
196  103  21.484707  -429.1078  429.64532  
197  97  288.52075  -27.30014  289.80945  
198  94  -145.0088  34.3516  149.0221  
199  99  259.18777  -87.4359  273.53857  
200  106  221.95618  -102.941  244.66588  
201  111  -106.53697  -135.1677  172.10587  
202  108  -109.87272  -125.149315  166.53638  
203  107  -109.35722  193.08095  221.8992  
204  105  -326.5681  522.47943  616.14246  
205  100  257.99307  -377.4672  457.211  
206  99  42.43549  -228.73306  232.63615  
207  107  -114.96028  66.131546  132.62447  
208  100  241.3476  47.046467  245.89029  
209  107  227.95882  217.22095  314.8812  
210  122  -165.00282  -172.34239  238.59554  
211  117  -84.28377  -53.837242  100.01101  
212  107  -303.57312  106.99315  321.876  
213  103  -104.65126  215.60306  239.65927  
214  97  -41.605785  82.138466  92.0748  
215  113  283.36517  69.918884  291.86377  
216  101  -232.63687  89.00457  249.08177  
217  106  105.506836  -389.46558  403.50357  
218  106  290.3045  -272.18335  397.9453  
219  107  296.5389  4.497574  296.57303  
220  105  27.43845  -272.80777  274.18414  
221  91  144.61536  -206.65686  252.23137  
222  91  -95.40194  -105.461945  142.21024  
223  109  -94.90177  280.1828  295.81876  
224  81  -12.301107  -158.70944  159.18544  
225  108  -150.78796  -142.03017  207.14627  
226  108  199.13887  -464.31912  505.22128  
227  103  149.95033  3.7339325  149.99681  
228  112  -140.35579  114.23563  180.9683  
229  106  242.2327  -148.97226  284.3755  
230  95  -175.20409  118.66514  211.60786  
231  90  112.95576  -39.594208  119.694214  
232  108  -78.009735  74.335  107.755325  
233  98  104.395905  -30.954369  108.888374  
234  107  159.12704  148.93031  217.94875  
235  117  -216.34996  -160.2526  269.23633  
236  108  204.08336  -93.873634  224.63809  
237  96  -49.27629  79.07963  93.17586  
238  108  114.37812  -103.5415  154.28284  
239  101  -83.533676  -316.75327  327.58282  
240  111  -269.83835  -46.827133  273.87134  
241  113  205.88914  292.73004  357.88437  
242  110  87.71828  -83.77439  121.29569  
243  97  -149.17165  123.4137  193.60558  
244  111  41.881626  -3.9628677  42.06869  
245  87  -91.65479  195.49707  215.91597  
246  120  -100.81097  -179.0318  205.46346  
247  86  101.26092  170.3445  198.16917  
248  121  4.5462875  -380.62653  380.6537  
249  117  -504.64212  -209.92458  546.5638  
250  110  119.31238  -372.60776  391.24414  
251  92  251.27007  187.81488  313.7054  
252  102  106.14699  -135.61671  172.2181  
253  109  133.89108  416.8447  437.81998  
254  110  -80.954506  -282.52094  293.89066  
255  93  284.41428  -117.111694  307.5819  
256  101  56.0548  -269.42395  275.1934  
257  92  -40.59304  -447.05756  448.8967  
258  112  -7.8954887  305.28888  305.39096  
259  119  -16.100773  -98.81656  100.11967  
260  95  -172.48166  97.57225  198.16727  
261  120  -110.36099  -13.769081  111.21662  
262  117  243.31686  359.42706  434.04022  
263  107  -228.72058  141.2396  268.8154  
264  97  -111.204254  -845.9902  853.2677  
265  112  237.84871  31.025616  239.86371  
266  99  176.6819  95.68907  200.93007  
267  84  -106.54239  6.132599  106.718735  
268  114  -50.224026  85.14703  98.855804  
269  108  -139.70514  -182.56625  229.88684  
270  118  44.14782  -3.7350693  44.30554  
271  109  -268.9459  32.38488  270.88867  
272  104  -29.688293  255.72937  257.4469  
273  107  -269.16687  -284.83624  391.89603  
274  97  -138.62964  -267.68103  301.4487  
275  106  8.5824585  164.7789  165.00226  
276  105  93.450615  -29.766273  98.07675  
277  106  -157.43942  193.91649  249.78146  
278  97  150.60213  114.97808  189.4755  
279  98  -86.81047  235.11713  250.63144  
280  88  103.409485  -56.748573  117.95729  
281  112  92.11042  -36.359924  99.02713  
282  108  7.4957237  -257.44113  257.55023  
283  96  589.69434  99.64437  598.05383  
284  97  -169.337  -14.36985  169.94562  
285  102  33.753307  -25.15512  42.095913  
286  89  -216.4909  -51.33602  222.49426  
287  100  26.94487  -66.102036  71.382805  
288  93  191.21593  -408.3006  450.85797  
289  96  45.35532  -159.76501  166.07819  
290  104  234.70587  -159.90622  284.0015  
291  99  -126.6373  152.53763  198.25421  
292  108  -119.87564  176.91347  213.702  
293  89  349.52905  105.080025  364.9827  
294  107  -33.609463  -290.83246  292.768  
295  90  37.51361  59.251873  70.12885  
296  93  -294.22  232.36456  374.91156  
297  114  -239.67358  70.75209  249.89854  
298  114  240.43896  -155.93024  286.57483  
299  104  196.01257  -197.73596  278.42493  
300  105  -290.62823  -62.63647  297.30136  
301  99  -426.76218  -40.219345  428.65317  
302  101  52.52995  8.115456  53.153137  
303  105  45.468037  15.384056  48.00012  
304  102  3.7653198  255.59396  255.62169  
305  110  -24.673958  33.457294  41.57156  
306  103  -131.49979  -71.86532  149.85599  
307  108  207.37328  -241.15723  318.05737  
308  106  -92.78355  -46.499043  103.78317  
309  96  134.20805  -381.5158  404.43307  
310  99  49.417015  -15.344666  51.744564  
311  110  -313.20087  168.70796  355.74872  
312  121  195.8818  243.1777  312.25803  
313  108  71.84034  -215.68532  227.33498  
314  105  -123.70205  -440.27893  457.32672  
315  109  131.54446  177.79012  221.16345  
316  105  20.990273  102.92323  105.041824  
317  105  -5.9891434  101.14612  101.32328  
318  96  172.80492  -88.61619  194.20187  
319  106  193.70181  129.46303  232.98297  
320  106  -160.7427  -8.605015  160.97287  
321  86  29.888603  -54.630455  62.272106  
322  111  -41.599915  22.254333  47.17847  
323  93  22.099457  -181.02167  182.36565  
324  97  -106.960556  -148.85428  183.298  
325  111  161.23758  3.7228928  161.28055  
326  96  308.74246  -10.392628  308.91733  
327  90  -43.38163  -128.72128  135.83495  
328  113  2.4779892  82.51167  82.548874  
329  113  -426.87067  -213.17252  477.13843  
330  88  -18.68615  36.290863  40.8191  
331  101  263.51367  87.97744  277.81195  
332  100  170.5143  -34.070976  173.8849  
333  94  -245.42651  413.72388  481.04224  
334  109  59.334023  84.22063  103.02252  
335  96  52.14064  -54.793255  75.63694  
336  111  169.26555  -401.01428  435.2738  
337  104  -166.24008  154.82753  227.17247  
338  99  30.081978  -102.201454  106.536674  
339  119  -259.33267  -126.75372  288.65195  
340  106  245.12997  306.35526  392.35474  
341  101  -60.31803  -229.89372  237.67497  
342  84  -13.867744  218.71542  219.15463  
343  103  -1.0524445  51.760475  51.77117  
344  96  -171.36696  200.01385  263.386  
345  89  -6.4692917  -283.26135  283.3352  
346  103  -65.972496  -32.776432  73.6659  
347  98  -83.469955  -83.30417  117.92718  
348  116  311.7968  112.5166  331.47736  
349  98  -123.57301  175.63995  214.75494  
350  110  73.919586  -26.19485  78.42369  
351  89  62.432777  162.55508  174.13216  
352  102  252.46068  178.50037  309.19052  
353  102  -123.65178  190.73006  227.30533  
354  95  -208.82431  199.66681  288.9194  
355  118  -75.17666  -141.88284  160.56859  
356  107  30.132912  -31.086777  43.294113  
357  109  -85.00543  -281.07117  293.6442  
358  90  50.385582  141.04155  149.77124  
359  100  -160.7914  86.174934  182.42804  
360  99  -178.92184  19.609655  179.99324  
361  117  368.67807  212.81122  425.6902  
362  118  156.28554  -44.192543  162.41351  
363  113  -240.00415  142.85544  279.30212  
364  109  -254.53226  14.636633  254.95274  
365  121  -106.19332  -121.91388  161.67874  
366  94  -101.52849  -77.3262  127.622  
367  99  50.849106  87.22326  100.963005  
368  106  209.14964  147.41005  255.8775  
369  103  -485.67575  244.68692  543.8314  
370  95  -37.36641  37.798378  53.150406  
371  97  -100.40169  -184.03691  209.64276  
372  102  -58.39869  329.1386  334.27927  
373  99  -182.73616  67.157745  194.68608  
374  101  8.445595  118.748505  119.048454  
375  94  -202.90317  168.34189  263.645  
376  108  20.814987  -67.641945  70.77214  
377  88  247.06927  75.031555  258.2111  
378  102  84.787224  -202.73999  219.75526  
379  104  213.36818  174.06517  275.3628  
380  95  29.576958  134.6145  137.82547  
381  113  94.233795  -18.257324  95.98614  
382  107  -133.79822  -155.08313  204.82368  
383  102  182.03784  215.19498  281.86282  
384  112  155.42834  -148.7433  215.13377  
385  108  -78.70756  -149.01218  168.52153  
386  113  148.00269  14.189573  148.68134  
387  94  99.52003  282.0182  299.06268  
388  99  -233.40074  -243.61308  337.377  
389  82  9.123138  -22.508516  24.287134  
390  102  416.57724  77.74248  423.76938  
391  113  92.84244  -57.726254  109.32538  
392  108  295.85547  86.0588  308.1178  
393  115  168.12473  259.6422  309.32184  
394  111  -66.58074  -416.64243  421.9288  
395  98  -200.66714  -231.18288  306.12552  
396  81  -394.0528  96.37396  405.66678  
397  106  -56.13115  95.02166  110.36223  
398  124  -70.24659  12.198938  71.29795  
399  92  -66.46085  22.333422  70.11295  
400  97  24.999863  -0.06959054  24.99996  
401  101  -66.43249  -22.626001  70.17985  
402  108  -70.204414  -12.517747  71.31167  
403  96  -56.245514  -95.489006  110.82287  
404  98  -393.80502  -97.00687  405.57703  
405  101  -200.56445  230.72021  305.7089  
406  113  -66.758545  415.94247  421.26578  
407  123  169.06097  -259.83078  309.98975  
408  85  296.3434  -85.46669  308.42175  
409  102  92.92883  57.750286  109.41144  
410  98  416.81976  -76.9699  423.86682  
411  108  8.404907  22.13137  23.673615  
412  100  -233.79562  242.89583  337.13318  
413  93  100.310684  -282.02457  299.33273  
414  86  148.02571  -13.856589  148.67285  
415  96  -79.065056  148.71053  168.4224  
416  91  155.2044  148.72324  214.95816  
417  104  182.35544  -215.24101  282.10318  
418  96  -134.26102  154.67084  204.81477  
419  96  94.22413  17.86372  95.90255  
420  118  29.774666  -135.01884  138.26286  
421  119  213.76593  -173.61389  275.38638  
422  99  84.20365  202.60632  219.40732  
423  108  246.90201  -74.91184  258.01624  
424  95  20.283867  67.13617  70.133446  
425  85  -202.7799  -169.1519  264.06827  
426  119  8.604256  -118.95993  119.27069  
427  121  -182.73703  -67.88435  194.93872  
428  97  -57.790802  -329.36707  334.39862  
429  96  -100.998245  183.81346  209.73325  
430  97  -37.50261  -38.293365  53.598766  
431  87  -485.01706  -245.92175  543.8006  
432  92  209.57333  -147.03612  256.00897  
433  95  50.798065  -86.87291  100.63471  
434  96  -101.91052  76.87778  127.65558  
435  90  -106.65915  121.36937  161.57567  
436  108  -254.35187  -15.349501  254.81459  
437  100  -239.38765  -143.45076  279.07806  
438  93  156.46748  44.328304  162.62556  
439  113  369.00128  -212.22118  425.6757  
440  103  -179.22598  -20.045307  180.34348  
441  114  -160.76025  -86.60909  182.60611  
442  86  50.780205  -140.90959  149.78032  
443  100  -85.53249  280.83963  293.5757  
444  92  30.141228  31.088907  43.30143  
445  85  -75.49715  141.41348  160.30469  
446  108  -208.15414  -200.5069  289.01758  
447  107  -123.07242  -191.17557  227.36516  
448  107  253.2377  -178.28406  309.7007  
449  120  62.767662  -162.34213  174.05386  
450  106  73.94489  26.295254  78.48113  
451  111  -123.12321  -175.97687  214.77238  
452  98  312.0426  -111.70224  331.43323  
453  102  -83.7398  83.30759  118.120735  
454  108  -66.05571  32.671333  73.69378  
455  114  -7.102646  283.10654  283.19562  
456  102  -171.28322  -200.68536  263.84192  
457  94  -0.7279663  -51.923004  51.92811  
458  128  -12.693062  -219.20026  219.56746  
459  88  -60.59723  229.60535  237.46713  
460  80  245.69244  -305.97964  392.41345  
461  110  -259.53302  126.31098  288.63794  
462  107  30.061813  102.242325  106.57019  
463  94  -165.62872  -155.06084  226.88484  
464  123  168.28772  401.1663  435.03464  
465  107  52.076996  54.536613  75.407265  
466  96  59.70079  -84.59018  103.535904  
467  109  -244.08356  -414.22693  480.79178  
468  102  170.639  34.623604  174.11624  
469  111  263.4522  -87.39006  277.56818  
470  103  -18.95185  -35.995857  40.68015  
471  101  -427.15973  212.46533  477.0817  
472  97  3.0408096  -82.50099  82.557014  
473  99  -43.12645  128.76663  135.79668  
474  110  309.04987  10.625591  309.23248  
475  94  161.20663  -3.3567543  161.24158  
476  87  -107.53787  148.87097  183.64902  
477  102  21.946243  180.93903  182.2651  
478  102  -41.653595  -22.525066  47.353992  
479  93  30.330193  54.534943  62.401768  
480  100  -160.64903  8.083603  160.85228  
481  88  194.25174  -129.15019  233.26703  
482  109  172.49387  88.86145  194.03735  
483  121  -5.7991524  -101.36049  101.526245  
484  96  21.356628  -103.04477  105.23464  
485  103  131.68887  -177.20692  220.781  
486  103  -124.50752  440.2584  457.52548  
487  99  71.491165  215.63524  227.17734  
488  104  196.23267  -243.11331  312.42813  
489  105  -312.78262  -169.29419  355.65924  
490  90  49.48581  15.742817  51.92958  
491  91  133.49933  381.84045  404.50485  
492  124  -92.90744  45.958164  103.65301  
493  94  206.79756  241.52095  317.9585  
494  103  -131.66925  70.99628  149.59032  
495  99  -24.652752  -34.007755  42.0034  
496  107  4.1771965  -255.83868  255.87279  
497  92  45.516365  -15.346264  48.033813  
498  109  52.361412  -7.641323  52.916042  
499  104  -426.97705  39.37875  428.7891  
500  121  -290.2961  62.036964  296.85083  
501  103  195.90497  198.0515  278.57343  
502  101  240.5791  155.64922  286.53967  
503  107  -239.86774  -71.73731  250.36528  
504  98  -293.47977  -233.0839  374.7779  
505  96  38.082996  -58.989475  70.21448  
506  99  -33.648567  290.6007  292.5423  
507  96  349.877  -104.74248  365.219  
508  113  -119.47073  -177.36502  213.8495  
509  106  -126.15768  -152.40828  197.84854  
510  110  234.4404  160.80463  284.28934  
511  108  45.7957  159.54265  165.98524  
512  98  190.3471  408.4549  450.63004  
513  88  26.676598  65.86212  71.059555  
514  87  -216.52522  50.579704  222.3544  
515  108  34.12286  24.66298  42.10264  
516  117  -168.76831  13.9217  169.34154  
517  97  590.16064  -98.507965  598.3255  
518  90  6.797802  257.30075  257.39053  
519  96  91.87716  35.956436  98.662445  
520  104  102.73327  57.235558  117.60116  
521  108  -86.374954  -235.74545  251.0708  
522  101  150.78862  -114.766335  189.49544  
523  92  -157.31158  -194.66885  250.28563  
524  112  93.24217  29.898026  97.918304  
525  105  8.733261  -164.95668  165.1877  
526  102  -139.29842  267.62943  301.71106  
527  97  -269.62875  284.03217  391.62985  
528  111  -29.105785  -256.02014  257.66928  
529  105  -268.34534  -32.803295  270.3429  
530  80  44.09249  4.300644  44.30173  
531  109  -139.88052  182.069  229.59895  
532  103  -49.60136  -85.380226  98.742485  
533  90  -106.21254  -6.450966  106.408264  
534  98  177.0784  -95.29352  201.09106  
535  101  237.86981  -30.084625  239.76474  
536  97  -113.10713  845.57117  853.1025  
537  101  -228.16104  -142.5293  269.02057  
538  95  244.14198  -359.26135  434.36624  
539  118  -110.462524  13.503693  111.28486  
540  104  -171.31021  -97.72817  197.22572  
541  104  -15.926189  98.844955  100.119774  
542  86  -6.9527397  -305.0829  305.1621  
543  127  -41.04546  447.35748  449.2365  
544  97  55.925575  269.31528  275.0607  
545  98  284.23508  117.1863  307.44464  
546  106  -81.47989  281.7386  293.28418  
547  112  134.54688  -416.64417  437.83014  
548  102  105.957184  135.69392  172.16203  
549  106  251.71144  -187.25333  313.72354  
550  108  118.0341  372.93124  391.16464  
551  109  -505.2392  208.68738  546.6416  
552  106  3.927637  380.13086  380.15115  
553  92  101.53663  -170.55887  198.49437  
554  103  -101.07064  178.4177  205.05646  
555  110  -91.07437  -195.97075  216.0997  
556  113  42.194084  3.8838654  42.372456  
557  101  -148.35524  -123.72013  193.17337  
558  97  88.081635  83.63913  121.465546  
559  105  206.38725  -292.3091  357.8272  
560  93  -269.91278  46.491936  273.88757  
561  111  -83.72594  316.4923  327.3796  
562  107  114.31807  103.78576  154.40242  
563  104  -49.017044  -79.712685  93.57768  
564  108  203.92334  94.416  224.72006  
565  97  -216.48692  159.51779  268.90985  
566  96  159.7476  -148.85046  218.3478  
567  115  104.44722  30.954834  108.937706  
568  113  -77.640686  -74.63855  107.6986  
569  95  113.43077  39.51425  120.11626  
570  101  -174.4439  -118.93939  211.13326  
571  91  242.17055  149.45494  284.57574  
572  100  -140.00157  -114.50603  180.86479  
573  115  150.2129  -3.2024002  150.24704  
574  118  197.95229  464.85016  505.2433  
575  88  -151.19476  141.51122  207.08762  
576  115  -12.409042  158.08313  158.56941  
577  111  -94.17341  -280.54037  295.92487  
578  101  -95.489655  105.340866  142.17937  
579  98  144.60858  206.91656  252.4403  
580  114  27.319614  272.62646  273.99188  
581  104  296.9964  -4.0702286  297.0243  
582  94  289.4149  272.88193  397.77573  
583  106  104.65606  389.1099  402.93848  
584  100  -232.4055  -90.18697  249.29102  
585  93  283.3184  -69.72967  291.7731  
586  107  -41.75946  -82.65975  92.60933  
587  102  -104.47734  -216.0996  240.03032  
588  97  -303.41354  -107.81213  321.9988  
589  92  -84.116104  53.59738  99.740654  
590  86  -164.9313  171.83151  238.17726  
591  110  228.75748  -217.21777  315.45767  
592  102  241.47823  -46.63733  245.94058  
593  97  -115.34143  -66.37558  133.07654  
594  91  42.110405  228.88058  232.72217  
595  94  257.07626  377.25113  456.51575  
596  96  -325.5513  -523.55835  616.5201  
597  108  -108.860825  -193.15399  221.71861  
598  107  -109.89239  124.931885  166.38603  
599  116  -107.20709  136.26245  173.38055  
600  88  222.30574  103.15254  245.072  
601  100  259.12183  87.90814  273.6274  
602  117  -144.83002  -34.555283  148.89528  
603  89  288.89642  27.66594  290.2181  
604  101  20.607744  428.8627  429.35754  
605  97  1.9117885  -101.49068  101.50868  
606  89  -110.34519  171.96124  204.32016  
607  106  309.24567  234.25504  387.954  
608  87  -82.34058  -50.22731  96.45078  
609  97  182.34386  314.79736  363.7948  
610  109  5.1283736  -101.558365  101.68777  
611  91  153.02422  -17.41047  154.01147  
612  104  -402.8706  -8.473129  402.9597  
613  109  57.902473  -83.7439  101.81226  
614  105  -129.19699  153.35883  200.52629  
615  88  -172.75252  189.91672  256.7329  
616  102  -152.08061  57.76754  162.68251  
617  99  149.8098  37.977478  154.54858  
618  102  13.139492  -217.89226  218.28807  
619  107  -78.329254  -76.00301  109.141785  
620  98  132.77608  88.128975  159.36186  
621  95  67.71505  -88.29845  111.27418  
622  96  -152.38766  -95.63432  179.91087  
623  95  347.0271  -115.394775  365.70996  
624  89  32.112812  79.85462  86.0697  
625  96  11.935608  114.53559  115.15581  
626  100  -171.1413  22.350105  172.59453  
627  99  -113.56659  81.467545  139.76527  
628  122  -12.970755  -189.33301  189.7768  
629  99  348.77917  107.20749  364.88403  
630  85  11.798088  -169.57007  169.98001  
631  95  245.0423  -56.950848  251.5733  
632  94  -293.85785  381.3099  481.40387  
633  81  2.252287  -208.31918  208.33136  
634  129  -103.34326  64.78543  121.97124  
635  97  130.6588  79.68156  153.03879  
636  97  87.47777  136.86353  162.43147  
637  104  -34.43068  -160.87387  164.51709  
638  104  -264.91214  62.731056  272.2382  
639  92  -26.309425  34.30223  43.229954  
640  97  -61.923256  -1.5593414  61.942886  
641  110  192.49432  -237.80792  305.9521  
642  91  27.396292  78.827995  83.45304  
643  109  -188.59143  69.400665  200.95567  
644  95  -331.94757  240.68173  410.02057  
645  116  -20.267721  -318.57465  319.21872  
646  91  343.14902  188.2958  391.4161  
647  95  -113.32776  -98.986145  150.47072  
648  95  -259.57684  28.736145  261.1626  
649  93  -235.48901  -21.244827  236.44537  
650  127  -312.04413  -122.147064  335.09915  
651  84  -15.683636  292.18045  292.60107  
652  99  58.169357  61.36  84.550125  
653  109  -276.18552  -156.1083  317.25107  
654  109  -270.52124  9.590004  270.69116  
655  111  -328.5373  26.85048  329.63266  
656  94  -39.160084  -29.357025  48.942284  
657  89  21.695152  93.033585  95.529724  
658  107  63.570576  -219.26929  228.29857  
659  106  153.66068  -98.35447  182.44232  
660  103  -50.5494  171.67175  178.9593  
661  95  117.655945  -167.22289  204.46617  
662  86  82.83627  -265.372  278.00027  
663  94  -53.87178  258.97687  264.52066  
664  94  -199.68777  -411.76944  457.63443  
665  105  185.25995  -212.96608  282.269  
666  83  79.55268  -156.3542  175.4288  
667  103  129.10782  -169.92851  213.41164  
668  84  -107.54505  -408.61084  422.5266  
669  108  193.98372  84.38436  211.54291  
670  103  -4.02079  70.7949  70.90899  
671  95  -167.97867  87.253944  189.28836  
672  103  -221.85355  -159.36096  273.15732  
673  128  -127.6597  152.78531  199.09885  
674  96  147.61081  93.292915  174.62108  
675  102  -43.96747  -15.802864  46.721184  
676  106  206.32045  10.076958  206.56639  
677  100  -12.727535  77.28935  78.33029  
678  100  15.282822  -147.17267  147.96405  
679  109  52.55798  -184.53784  191.8764  
680  100  181.17603  39.529236  185.43816  
681  99  -83.18125  -112.22781  139.69325  
682  94  -133.21704  -73.110725  151.96037  
683  89  -464.65152  148.95816  487.9442  
684  110  110.93149  -26.259338  113.99714  
685  97  -24.886345  -43.72973  50.3152  
686  110  -51.20253  -249.32214  254.5255  
687  117  29.636932  154.38312  157.20209  
688  111  141.54993  -393.84225  418.507  
689  111  19.378727  588.3432  588.66223  
690  97  438.50058  -41.456726  440.45593  
691  108  -134.8859  137.15488  192.36856  
692  116  -71.18267  -112.89959  133.46643  
693  92  290.0001  170.92975  336.62595  
694  103  -18.516754  128.93837  130.26118  
695  106  -264.8157  -30.662071  266.58493  
696  105  -165.25749  96.23532  191.23618  
697  105  -141.15897  -155.60388  210.09146  
698  117  235.07263  -189.18333  301.74405  
699  103  -201.21957  -122.74991  235.70502  
700  98  -249.30583  161.86429  297.24307  
701  117  99.59737  -180.56958  206.21593  
702  109  -178.00284  -83.759125  196.72469  
703  96  -220.1808  119.522606  250.52992  
704  131  -30.607922  208.4453  210.68053  
705  100  6.237034  242.66286  242.743  
706  105  -43.62253  -362.48517  365.10056  
707  103  -23.339565  100.1245  102.80881  
708  96  28.54483  348.5968  349.76355  
709  99  -124.101746  228.38693  259.9266  
710  97  -169.05734  436.87354  468.44302  
711  97  -103.95815  -214.64014  238.49043  
712  97  334.5672  16.229332  334.9606  
713  110  -273.01923  -362.07764  453.47516  
714  104  143.0069  -58.415066  154.47748  
715  118  -30.947815  -238.48857  240.48817  
716  109  123.48525  19.311172  124.986115  
717  92  127.59929  -129.84576  182.04807  
718  88  -28.705368  33.90017  44.420937  
719  96  -244.17932  127.70152  275.5562  
720  123  -14.422707  -22.761559  26.946299  
721  96  -149.72049  52.740765  158.73819  
722  114  -128.01115  151.76543  198.5437  
723  111  217.07379  126.37714  251.18163  
724  120  37.518497  -168.18579  172.31975  
725  102  57.06101  10.313938  57.985653  
726  114  1.3399582  64.88821  64.90204  
727  120  106.76193  -135.22964  172.29384  
728  112  -308.94672  -60.081326  314.73456  
729  100  54.159256  -36.32425  65.21255  
730  94  -620.67163  -190.75797  649.32416  
731  106  -437.39087  73.75183  443.56522  
732  94  -315.3637  120.08907  337.45465  
733  101  -108.131714  -23.860184  110.7329  
734  118  -164.08627  -230.10674  282.61884  
735  93  -129.13358  -140.8157  191.06161  
736  95  157.53519  -105.84671  189.79163  
737  98  -290.06622  113.85051  311.60928  
738  90  -199.9609  197.17679  280.82565  
739  94  93.37436  39.30564  101.309944  
740  97  -80.13971  20.905266  82.82152  
741  97  60.50926  -62.635635  87.08957  
742  105  -97.91495  -272.68094  289.72784  
743  113  141.03629  85.0885  164.71577  
744  98  10.020012  -252.28899  252.4879  
745  101  169.08618  178.10745  245.58583  
746  100  -528.15564  -33.447002  529.2136  
747  108  -42.565254  -8.27729  43.362595  
748  101  -256.1969  -73.74126  266.59824  
749  114  165.24478  -171.47  238.13399  
750  112  4.84066  -0.26682281  4.848008  
751  108  -23.856026  -164.44014  166.16158  
752  98  -113.78936  -145.94173  185.05946  
753  98  -356.1406  -57.36385  360.73083  
754  98  -33.57753  107.021576  112.16536  
755  91  44.51963  -126.15742  133.78226  
756  106  423.10544  -93.87985  433.39548  
757  102  390.98093  -15.091759  391.2721  
758  106  -31.742432  96.38351  101.47592  
759  118  -23.55655  -180.72935  182.25809  
760  105  83.824394  98.15776  129.07935  
761  103  -74.54604  -40.86301  85.01117  
762  99  198.78073  241.12425  312.4975  
763  107  -117.72252  -123.85424  170.87558  
764  108  112.07849  9.974075  112.52142  
765  101  -24.55056  -376.12534  376.92572  
766  90  -54.555412  -158.13647  167.2825  
767  96  -82.19082  -284.58026  296.2115  
768  97  97.70747  136.8135  168.12105  
769  108  254.83212  382.75565  459.82745  
770  96  51.667007  2.55723  51.73025  
771  104  50.29837  102.9594  114.58867  
772  112  -121.89364  38.966763  127.97057  
773  97  4.602707  153.4649  153.5339  
774  81  -3.648117  -523.9557  523.9684  
775  111  -294.8468  -43.614616  298.05515  
776  102  -111.24871  -54.748188  123.99048  
777  102  53.017654  -138.45816  148.2617  
778  95  20.342667  -354.3504  354.93384  
779  103  191.13213  -30.919817  193.61694  
780  110  -48.4871  -72.830605  87.494545  
781  115  -69.42007  -29.969559  75.61296  
782  108  -49.26275  -81.45136  95.19003  
783  103  -424.8782  -304.05023  522.46344  
784  96  26.343315  241.60236  243.03429  
785  100  -145.20544  -66.756584  159.81572  
786  108  -115.00836  106.02655  156.42427  
787  100  20.261948  317.38794  318.03403  
788  101  -128.36485  -103.74475  165.04698  
789  85  -120.83616  -23.772  123.15228  
790  92  161.53062  -111.90132  196.50458  
791  95  24.53518  71.38132  75.48025  
792  108  -58.873688  -101.1629  117.04719  
793  117  284.74734  185.24596  339.7015  
794  104  53.59202  84.10862  99.73146  
795  108  -317.80725  31.117498  319.32703  
796  100  -252.69147  -320.3611  408.02478  
797  117  13.186829  -376.04367  376.2748  
798  106  -156.82295  -135.17984  207.04353  
799  85  -58.45874  343.5817  348.51944  
