n v(n)    Re(T)       Im(T)        Mod(T) 
   
0  114  82246.0  0.0  82246.0  
1  107  -1.3276672  -191.14088  191.1455  
2  106  -296.12708  -20.728535  296.85168  
3  107  -101.51987  314.2559  330.24695  
4  92  -89.29619  -144.33678  169.726  
5  103  -162.1719  80.30382  180.96527  
6  102  137.44061  114.34955  178.78966  
7  96  -57.674896  -224.07405  231.37756  
8  106  -199.95412  49.48386  205.98616  
9  92  -95.77947  -142.23439  171.4769  
10  99  -98.29701  -41.740547  106.79221  
11  109  122.877144  -16.244482  123.94626  
12  99  186.95073  -293.3828  347.8851  
13  104  85.86121  -242.11577  256.88947  
14  106  156.2048  -153.45444  218.97078  
15  101  41.802307  -303.26678  306.13425  
16  97  62.1308  -149.52048  161.91544  
17  108  179.08904  74.75032  194.06311  
18  112  -46.499924  169.65176  175.90897  
19  121  52.700478  -261.17368  266.43768  
20  94  62.391228  34.06781  71.08643  
21  120  -0.8278351  -52.57521  52.58173  
22  103  -19.959694  126.033226  127.603935  
23  102  -38.63626  266.53143  269.31723  
24  100  -38.166862  50.5303  63.324722  
25  96  40.355965  107.31865  114.655556  
26  94  -146.6803  406.8393  432.4735  
27  106  18.236443  8.523664  20.130095  
28  94  -72.01157  193.18288  206.16812  
29  92  136.8129  -231.06949  268.53467  
30  107  -243.40628  -93.14481  260.6196  
31  104  11.624588  -175.92503  176.30867  
32  97  -409.51062  407.53253  577.73846  
33  92  -106.076935  -356.38797  371.83963  
34  109  192.93173  251.13046  316.68463  
35  108  -269.5983  -359.54837  449.39767  
36  101  481.69345  -281.07962  557.7045  
37  94  -209.93185  97.997696  231.67851  
38  106  232.8628  50.69189  238.3165  
39  110  140.11433  355.9464  382.53088  
40  79  300.63406  98.80128  316.45306  
41  105  -22.097992  -29.048355  36.498333  
42  81  134.55034  42.433044  141.0828  
43  105  383.69354  -126.700485  404.07147  
44  121  -176.35117  52.508987  184.00253  
45  105  80.66384  -195.4595  211.44994  
46  85  -82.975525  -113.70278  140.75958  
47  111  84.41301  -86.3987  120.790276  
48  88  375.0984  -267.77405  460.87064  
49  101  -109.53641  -12.501808  110.247536  
50  87  -13.362183  -51.60409  53.306004  
51  101  153.0663  -164.92657  225.01126  
52  106  354.0236  -47.88465  357.2473  
53  94  -34.8182  -52.57553  63.059444  
54  114  315.83588  208.40472  378.3977  
55  102  54.06629  -4.2399406  54.232285  
56  112  -98.41324  -32.88217  103.76128  
57  110  -42.47853  -252.11472  255.66824  
58  108  0.404274  -8.661198  8.670628  
59  117  406.788  -139.44516  430.0249  
60  100  20.987663  49.213062  53.501472  
61  103  -177.69595  -8.367722  177.89287  
62  106  180.34937  -53.77633  188.19614  
63  104  -48.842583  249.15245  253.89474  
64  92  -175.62491  165.79942  241.5234  
65  104  -97.223015  -89.805695  132.35323  
66  100  -87.14279  143.18124  167.61484  
67  105  -75.94564  103.59361  128.4499  
68  112  -42.004982  -163.75931  169.06073  
69  116  158.57172  -154.27675  221.23811  
70  86  191.37903  -163.03745  251.41031  
71  100  422.6128  494.19424  650.2534  
72  91  122.61881  -29.523796  126.12306  
73  103  234.43939  67.10249  243.85359  
74  103  545.0854  -164.77982  569.4475  
75  106  -171.64449  -24.05679  173.32213  
76  105  -290.89838  -83.70148  302.70084  
77  110  212.25308  108.64657  238.4438  
78  103  36.69625  79.39026  87.461006  
79  104  283.834  149.57323  320.83313  
80  89  55.76354  148.56381  158.68452  
81  116  -302.4229  294.77637  422.31827  
82  107  -154.49916  30.158058  157.41505  
83  87  55.81726  262.1902  268.0658  
84  100  88.93442  -91.80984  127.82166  
85  103  -18.59449  90.9695  92.85044  
86  109  42.269913  -79.22208  89.79356  
87  116  -19.446396  -271.05084  271.74753  
88  101  -75.98262  32.884903  82.79357  
89  99  -82.00397  -52.171326  97.1931  
90  88  27.843956  221.29005  223.03491  
91  106  -10.431656  -157.87021  158.21448  
92  118  -114.2269  -68.05934  132.96562  
93  111  169.16313  -264.44223  313.92014  
94  93  -94.27003  -140.52625  169.21721  
95  100  188.25221  -43.867462  193.29576  
96  96  -164.72607  -228.46591  281.6582  
97  100  90.75302  56.83541  107.08116  
98  100  151.90027  -141.35074  207.49391  
99  126  -242.9098  -126.37191  273.81567  
100  97  -0.1010437  -58.31311  58.313198  
101  90  17.87991  12.598541  21.872686  
102  90  -65.26634  120.61269  137.13904  
103  107  -287.35626  279.5341  400.89017  
104  93  136.53714  203.13594  244.75826  
105  97  161.66055  -138.83557  213.09494  
106  94  106.290565  -119.44152  159.88734  
107  113  143.42862  -122.37693  188.54146  
108  99  -11.230759  -55.74408  56.864155  
109  86  234.86829  -86.907906  250.43182  
110  106  -162.33742  55.683937  171.62209  
111  104  219.13844  -47.05815  224.13417  
112  96  214.67773  260.27307  337.38495  
113  120  75.74595  -139.55994  158.79051  
114  106  253.8311  86.41647  268.1381  
115  111  -291.42426  -56.24266  296.80182  
116  102  49.87738  84.51909  98.138824  
117  102  -149.10797  106.02168  182.95842  
118  103  -191.821  56.78898  200.0507  
119  99  324.5279  116.63847  344.85196  
120  121  178.3176  178.57405  252.36058  
121  107  16.378704  -95.52646  96.92041  
122  120  -98.6556  -50.179108  110.683655  
123  115  -171.47862  72.839615  186.30762  
124  99  145.14182  -115.13121  185.26021  
125  89  -99.69212  91.62882  135.40443  
126  97  101.99276  42.072998  110.32978  
127  95  49.643936  26.781212  56.40704  
128  112  332.69592  176.26202  376.50348  
129  96  186.90015  -2.9321823  186.92314  
130  103  -117.48408  80.830605  142.60469  
131  101  130.36613  -76.971405  151.39328  
132  116  247.97812  -72.092224  258.2449  
133  111  -212.23047  -350.74884  409.95917  
134  115  -159.31223  -295.5188  335.7257  
135  100  -217.62474  591.75745  630.5057  
136  98  -84.36333  126.05817  151.68333  
137  121  303.91644  -435.2651  530.8681  
138  95  155.3464  242.69049  288.1513  
139  105  18.499893  219.55519  220.33322  
140  116  -59.41178  -147.52484  159.03879  
141  115  4.5362244  -88.11693  88.23361  
142  107  -3.8008728  -229.95279  229.98419  
143  109  127.18332  -376.4286  397.3337  
144  117  10.510578  366.11115  366.262  
145  98  39.804337  180.03952  184.38713  
146  89  142.50104  0.78123474  142.50317  
147  113  291.39575  -68.76757  299.40018  
148  105  -45.867313  -55.941032  72.34093  
149  105  -183.41351  99.850784  208.83174  
150  83  52.294655  -70.838455  88.05009  
151  97  54.241543  -37.984314  66.21898  
152  115  -49.558353  34.223724  60.227016  
153  113  -147.27106  -139.96097  203.16948  
154  106  -98.524475  109.083694  146.9909  
155  89  -74.167885  122.08277  142.84634  
156  95  120.06224  -106.003296  160.1613  
157  95  268.27484  155.0787  309.87222  
158  113  -71.29941  -282.5113  291.3696  
159  99  -49.637886  211.87201  217.60898  
160  102  -156.35358  -148.08208  215.34796  
161  93  -133.53801  455.3206  474.49893  
162  114  1.0684357  313.76004  313.76184  
163  110  193.8261  104.88223  220.38338  
164  115  -181.0328  -23.052078  182.4946  
165  107  -162.0856  -136.81421  212.10815  
166  101  -28.752073  -69.529594  75.23992  
167  101  135.37323  28.380722  138.31622  
168  114  -186.64815  -64.26509  197.40195  
169  97  -77.33367  -423.10242  430.1118  
170  100  -74.0118  -304.61798  313.48026  
171  114  -240.5765  -87.52842  256.00446  
172  100  387.0853  122.41762  405.98166  
173  92  -6.9167233  -136.8468  137.02148  
174  107  -219.84842  302.9974  374.3538  
175  109  1.1501694  -133.6399  133.64484  
176  117  143.67477  70.407845  159.99908  
177  99  22.941916  225.4787  226.64284  
178  100  212.81639  -2.2786026  212.82858  
179  83  -172.89297  -38.55639  177.13998  
180  104  128.20692  -259.59753  289.5305  
181  109  -65.795494  269.7341  277.64282  
182  100  468.7915  87.03558  476.80252  
183  102  -3.1798372  -29.056328  29.229807  
184  103  102.26636  144.33398  176.8918  
185  102  -18.0143  143.67719  144.8021  
186  99  397.6905  -111.99445  413.15912  
187  122  -150.77435  114.2135  189.14975  
188  106  203.03691  16.325768  203.69221  
189  89  -168.56679  -205.96231  266.1489  
190  108  -64.33624  -125.390175  140.93207  
191  100  -415.24118  -118.37508  431.78455  
192  102  -105.90735  76.64  130.72894  
193  103  -84.60469  -70.0552  109.84391  
194  101  3.428823  -107.99614  108.05056  
195  106  107.65873  60.489384  123.488335  
196  92  -307.868  -131.76942  334.8819  
197  95  161.0454  30.728851  163.95085  
198  96  -331.47705  46.313965  334.6969  
199  118  97.93478  222.77402  243.35054  
200  103  -134.02682  91.835594  162.47142  
201  110  289.90662  39.54547  292.59134  
202  96  87.17577  -21.675209  89.83001  
203  121  -118.93395  5.377136  119.05544  
204  95  64.799545  325.03668  331.43298  
205  111  25.576607  300.5421  301.62845  
206  117  -15.097797  -194.69205  195.27657  
207  118  -311.04666  17.340141  311.52963  
208  95  105.225525  27.16417  108.67522  
209  82  147.48038  48.04299  155.10832  
210  106  457.18472  77.33752  463.6798  
211  99  -158.66263  42.46077  164.24599  
212  102  -170.61232  84.12183  190.22368  
213  111  -218.80441  -91.212814  237.05516  
214  107  -61.214813  80.8225  101.388016  
215  99  8.9436455  162.40234  162.64842  
216  106  -32.42085  580.7361  581.6404  
217  105  67.439896  -179.73407  191.96999  
218  96  -243.95117  -75.6593  255.41438  
219  121  156.97388  -379.6281  410.802  
220  109  -152.90164  -173.46324  231.23236  
221  102  -11.669357  146.10628  146.57155  
222  107  -13.743515  -311.33676  311.63995  
223  113  -108.957825  75.36148  132.48079  
224  106  16.410934  -89.36052  90.85494  
225  97  117.20387  -29.222359  120.79195  
226  111  181.46823  182.41888  257.30792  
227  89  65.914986  -57.176964  87.25818  
228  104  -42.520752  160.4531  165.9916  
229  117  -173.62483  10.333191  173.93205  
230  110  -219.97813  -146.75885  264.44003  
231  91  -73.52196  12.219147  74.53043  
232  120  156.17383  47.90056  163.3546  
233  91  380.22266  93.82028  391.62677  
234  105  312.27942  10.909637  312.46994  
235  107  24.535261  -256.21933  257.3914  
236  102  -4.9884815  -99.01545  99.14103  
237  114  109.463295  -144.63338  181.3864  
238  108  -129.905  -7.282028  130.10893  
239  96  80.06418  56.213043  97.82729  
240  96  -84.821045  -223.40863  238.96867  
241  112  -86.67066  -131.74907  157.70105  
242  117  -263.09576  -108.71594  284.6727  
243  82  144.28334  -20.67913  145.7577  
244  107  103.98299  196.16653  222.022  
245  100  -101.18146  -82.16649  130.34193  
246  114  151.63202  -4.2104034  151.69046  
247  114  -319.514  432.08334  537.3874  
248  110  67.68319  -212.8375  223.34013  
249  90  -88.4148  -239.4787  255.27872  
250  114  52.910698  -45.920303  70.05866  
251  106  -206.86858  553.2631  590.6731  
252  101  232.09299  -54.476364  238.40057  
253  98  128.50916  -96.837555  160.91028  
254  109  -278.97333  334.8269  435.81552  
255  97  185.61722  17.400612  186.43103  
256  98  260.72815  13.653305  261.0854  
257  102  -57.416313  -38.596878  69.183464  
258  95  202.98357  -66.94059  213.73668  
259  110  65.969696  77.036095  101.42268  
260  121  41.62969  -7.671852  42.3307  
261  106  -219.75304  316.9669  385.69342  
262  100  112.63136  -109.46207  157.05977  
263  110  487.2093  -259.48212  551.9999  
264  94  -630.5392  755.15765  983.79  
265  112  -57.77319  219.88681  227.34985  
266  105  15.704105  -51.03427  53.39584  
267  102  5.8701973  394.2511  394.29477  
268  111  183.23734  51.542934  190.34862  
269  112  -171.7427  227.01248  284.65808  
270  114  145.91733  -328.31464  359.28033  
271  117  -177.86856  294.83777  344.33493  
272  100  -257.44232  -10.011154  257.6369  
273  98  15.05217  -56.410774  58.384445  
274  110  -64.236404  -9.018448  64.86639  
275  95  92.20715  -97.76072  134.38495  
276  105  -95.12347  -271.84152  288.00397  
277  109  20.069405  41.66948  46.25069  
278  101  -201.97559  -26.28357  203.67857  
279  107  -283.66248  -369.29565  465.6648  
280  106  232.5063  119.52111  261.42776  
281  111  1.9071808  76.16344  76.18731  
282  109  -108.71313  128.81096  168.55505  
283  101  -109.35013  46.702084  118.90557  
284  108  41.846306  -87.11041  96.64025  
285  108  -153.18503  220.29916  268.32327  
286  100  -24.483067  -55.284058  60.46278  
287  105  202.46115  -143.88052  248.379  
288  102  -190.25528  111.526054  220.53375  
289  102  183.27213  189.30215  263.4843  
290  98  -31.111633  219.2048  221.40163  
291  89  -23.02288  -41.73314  47.662437  
292  103  258.8241  -18.575829  259.48984  
293  111  188.35901  61.198784  198.05153  
294  107  116.88959  -47.653366  126.23003  
295  89  84.25533  44.716064  95.385994  
296  107  216.57431  -253.52472  333.4355  
297  95  -83.58857  -37.421616  91.58289  
298  103  155.65729  -142.69574  211.16644  
299  106  94.38713  -264.93533  281.2466  
300  108  211.87474  117.82419  242.43236  
301  102  -88.44674  -152.47275  176.26901  
302  111  -159.63681  23.902779  161.41641  
303  101  132.2023  252.68237  285.17685  
304  106  57.912445  239.72208  246.61818  
305  102  272.89777  -159.82733  316.25616  
306  93  -59.670807  -2.349144  59.71703  
307  97  423.33777  53.286713  426.67825  
308  99  -186.4826  -18.75644  187.4235  
309  88  11.255676  -152.63757  153.05202  
310  98  197.27551  427.3897  470.7224  
311  129  -161.30313  19.753426  162.50815  
312  87  205.40424  -198.61234  285.7232  
313  94  -69.91942  97.70524  120.145905  
314  96  116.67376  -182.18579  216.3433  
315  107  13.784561  -80.58864  81.759056  
316  95  -144.38394  -197.08842  244.31654  
317  112  -266.4874  -177.69327  320.2974  
318  89  -26.544579  -175.69133  177.68527  
319  83  -104.64565  45.195137  113.98821  
320  110  -46.88096  205.50687  210.78638  
321  101  -10.801102  -2.3725433  11.058605  
322  99  -59.946243  209.16148  217.58235  
323  102  -295.4525  214.4548  365.0795  
324  95  51.155663  -68.232086  85.27907  
325  119  69.43667  185.467  198.03903  
326  94  -158.01862  -61.652817  169.62003  
327  96  180.712  51.635696  187.94434  
328  84  46.80777  -404.2899  406.9905  
329  109  73.20747  -248.25345  258.82254  
330  92  -55.240383  8.802193  55.937275  
331  87  -74.21619  140.83752  159.19563  
332  103  150.93536  45.24147  157.5699  
333  90  241.85356  53.981953  247.80475  
334  97  -125.929924  19.339012  127.40621  
335  115  62.74327  -39.700672  74.24864  
336  128  -196.35832  71.83505  209.08578  
337  107  -112.498344  382.99033  399.171  
338  109  -76.84094  103.19096  128.6581  
339  105  -230.65158  -50.537598  236.12328  
340  91  32.026688  79.862045  86.044495  
341  102  -178.34094  -180.60419  253.81758  
342  96  -33.426132  -46.587875  57.338787  
343  104  82.774445  -109.885574  137.57343  
344  112  -347.6006  247.17462  426.52252  
345  92  -127.43444  -245.02646  276.1838  
346  105  -209.48251  -217.18526  301.74884  
347  94  1.1877136  7.4914017  7.5849695  
348  95  -294.62415  -379.43365  480.38867  
349  90  40.14878  -76.47801  86.375984  
350  101  191.85742  161.11795  250.53595  
351  98  -269.08856  -264.0238  376.98438  
352  108  -55.835434  -271.63196  277.31122  
353  106  -151.4832  -212.35461  260.84793  
354  114  462.04504  255.46088  527.96387  
355  106  -91.83365  -183.32953  205.04422  
356  92  -81.91014  -455.64496  462.9488  
357  115  19.03199  -186.73566  187.70302  
358  99  193.71695  -30.883575  196.16333  
359  99  -20.312325  -260.57983  261.37033  
360  94  -37.42945  -43.170864  57.137444  
361  107  -245.56226  -79.60024  258.14148  
362  127  144.27444  -266.8436  303.34903  
363  87  193.1146  -217.67609  290.99164  
364  83  -118.18418  341.13358  361.0258  
365  117  -24.184708  53.811687  58.996593  
366  98  -186.12814  -42.596237  190.94011  
367  92  -112.55536  117.59736  162.7816  
368  99  43.79148  94.68576  104.32204  
369  116  158.08919  79.446106  176.92902  
370  106  135.14487  116.20108  178.23251  
371  113  318.25458  -19.593174  318.85712  
372  91  -25.343712  96.058945  99.345985  
373  105  216.51094  281.99048  355.52164  
374  98  -68.92006  -67.60501  96.54228  
375  100  247.18031  -317.5075  402.37933  
376  90  59.97409  -208.22995  216.69472  
377  105  91.24199  -7.2126236  91.52662  
378  106  -115.46002  -25.956726  118.34174  
379  91  198.60825  146.27875  246.66315  
380  106  -15.304131  32.103466  35.564716  
381  108  363.12286  174.46538  402.86026  
382  114  -52.851852  -191.35335  198.51807  
383  98  -30.265343  158.3968  161.26233  
384  108  -153.10045  -127.72317  199.38142  
385  91  -224.05054  104.27597  247.12775  
386  113  413.63763  192.45476  456.21808  
387  98  -11.655235  -226.43993  226.73969  
388  107  -67.04463  -148.84404  163.24684  
389  91  103.57263  43.268612  112.24733  
390  101  266.31238  23.019676  267.30542  
391  113  -78.539024  -25.648523  82.62097  
392  115  -186.40445  -17.859707  187.25807  
393  103  -51.474297  179.53412  186.7675  
394  103  296.16107  -109.0072  315.58508  
395  111  -39.559067  -77.55252  87.05925  
396  106  88.7474  -270.05002  284.25888  
397  107  161.2851  -277.0698  320.59406  
398  102  -141.28656  -93.499306  169.42258  
399  104  -186.14697  141.36708  233.74205  
400  106  -361.99963  -0.42243242  361.99988  
401  106  -185.52966  -141.62917  233.40968  
402  94  -140.98947  93.502884  169.1769  
403  98  160.88376  277.23364  320.53406  
404  104  88.27642  270.02042  284.08405  
405  100  -39.421356  76.9457  86.45626  
406  96  295.99554  109.09334  315.45953  
407  94  -51.426094  -179.95801  187.16177  
408  88  -186.3138  17.437424  187.12802  
409  94  -78.2305  25.30544  82.22151  
410  95  266.75275  -22.563875  267.70535  
411  94  103.24281  -43.44867  112.01279  
412  100  -67.21749  148.6854  163.17334  
413  122  -11.833351  226.08055  226.39001  
414  105  413.91275  -192.00255  456.27707  
415  100  -224.21317  -104.85705  247.5208  
416  104  -153.28873  127.27567  199.23988  
417  103  -29.701393  -158.75313  161.50768  
418  117  -52.95493  191.08438  198.28633  
419  95  363.58508  -174.19046  403.15805  
420  107  -15.371292  -32.387314  35.84989  
421  103  198.93098  -145.81398  246.64803  
422  119  -115.5743  25.662281  118.38908  
423  111  91.34846  7.4216557  91.64945  
424  89  59.765114  208.14606  216.55634  
425  111  246.58728  317.6812  402.1525  
426  112  -68.931915  66.83807  96.0153  
427  115  217.15572  -282.00623  355.92712  
428  92  -25.084496  -96.27159  99.48593  
429  86  318.05963  20.044535  318.6906  
430  95  135.12016  -116.21997  178.22609  
431  103  157.95361  -79.31325  176.74823  
432  96  43.43891  -94.71195  104.19833  
433  101  -112.78218  -117.6664  162.98834  
434  88  -186.4252  41.90577  191.07707  
435  103  -24.232254  -54.106613  59.28514  
436  102  -117.29326  -340.97314  360.5834  
437  96  192.63574  218.57393  291.34705  
438  102  143.2471  267.21222  303.18658  
439  105  -245.92303  79.03952  258.31256  
440  99  -37.54905  43.134186  57.18819  
441  111  -20.954567  260.47473  261.31625  
442  115  193.6512  31.111168  196.13437  
443  116  18.453728  186.74786  187.65741  
444  92  -82.8974  455.47836  462.9606  
445  111  -92.035934  182.69592  204.56885  
446  113  462.5  -254.75624  528.0218  
447  112  -152.56436  212.10143  261.2717  
448  109  -56.493874  271.07373  276.89804  
449  109  -269.71347  263.01416  376.72513  
450  99  192.28497  -161.15077  250.88461  
451  109  39.566475  76.41737  86.05302  
452  92  -295.56818  378.51813  480.2463  
453  82  1.2134323  -7.876606  7.969526  
454  106  -210.04324  216.34119  301.5322  
455  94  -128.03244  244.12312  275.65994  
456  93  -347.2962  -248.43446  427.00626  
457  97  82.84508  109.6908  137.46046  
458  86  -32.87027  45.583664  56.198975  
459  107  -178.6329  179.62012  253.3241  
460  91  32.218056  -80.49107  86.69958  
461  98  -230.61444  49.42961  235.8523  
462  121  -76.390656  -103.93989  128.99237  
463  110  -111.463776  -383.53802  399.40656  
464  98  -196.21466  -72.42925  209.1559  
465  113  62.990234  39.755123  74.4865  
466  112  -125.24317  -19.923512  126.81798  
467  103  242.58978  -53.659298  248.45346  
468  116  150.92572  -45.090225  157.5173  
469  112  -74.08547  -141.08177  159.35094  
470  104  -55.086914  -8.65963  55.763405  
471  117  72.944565  248.54329  259.0264  
472  117  46.119545  403.9709  406.595  
473  81  180.85098  -51.782715  188.1184  
474  105  -158.12793  60.45432  169.29018  
475  99  69.955215  -185.79582  198.52913  
476  86  50.666473  68.12194  84.89812  
477  121  -294.86652  -215.46065  365.19797  
478  103  -59.48779  -209.38988  217.67618  
479  97  -10.176125  2.2394714  10.419633  
480  100  -46.50344  -205.6218  210.81483  
481  95  -104.43315  -45.17296  113.784355  
482  99  -26.972107  175.7008  177.75902  
483  100  -266.63806  177.00543  320.04184  
484  114  -144.23032  196.37503  243.65045  
485  105  13.904198  80.317055  81.51169  
486  94  116.73899  182.05698  216.27005  
487  122  -69.393936  -98.05875  120.12925  
488  100  205.2591  198.60585  285.61438  
489  97  -160.86389  -20.789581  162.20172  
490  120  198.29709  -427.23355  471.0098  
491  114  11.106148  152.61534  153.0189  
492  100  -186.1757  17.917122  187.03587  
493  105  423.72375  -52.503418  426.9642  
494  90  -59.432602  1.8268738  59.46067  
495  99  272.68378  159.87134  316.0938  
496  98  58.294487  -240.15086  247.12483  
497  102  132.72083  -252.53049  285.28314  
498  109  -159.45721  -23.793884  161.22267  
499  107  -88.45929  152.23853  176.07275  
500  86  212.40755  -117.49522  242.73872  
501  84  93.83011  265.10297  281.2182  
502  106  155.92029  142.29408  211.08942  
503  97  -83.68435  36.869568  91.44635  
504  110  216.20087  253.54199  333.20618  
505  106  84.413765  -44.98249  95.65097  
506  103  117.044426  47.376404  126.26924  
507  100  188.47931  -61.299057  198.19693  
508  114  258.6956  18.564178  259.3608  
509  108  -23.549332  41.302155  47.544075  
510  95  -30.93444  -219.60341  221.7715  
511  110  184.14062  -189.60336  264.30515  
512  97  -190.16632  -111.99919  220.69675  
513  106  202.14297  144.22998  248.32251  
514  108  -24.831528  54.851387  60.210293  
515  103  -152.61803  -221.1213  268.67618  
516  116  41.7927  87.14433  96.64763  
517  108  -109.231186  -47.177887  118.984055  
518  117  -108.2945  -129.2929  168.65453  
519  104  2.1836243  -76.45471  76.485886  
520  115  232.18744  -118.19585  260.54034  
521  111  -284.59637  368.56235  465.65363  
522  94  -201.78241  25.587234  203.39825  
523  88  20.2132  -42.254765  46.840565  
524  88  -95.63824  271.2823  287.6469  
525  89  92.20473  97.11488  133.9142  
526  104  -64.1959  8.515816  64.75826  
527  98  15.008247  56.011375  57.987255  
528  92  -257.4713  8.931183  257.62616  
529  98  -176.525  -295.425  344.14676  
530  94  145.22736  328.55548  359.22095  
531  111  -171.03851  -228.12436  285.1226  
532  102  183.7918  -51.708263  190.92712  
533  106  6.659485  -394.685  394.74118  
534  107  15.493412  50.710342  53.02438  
535  86  -57.455418  -220.49683  227.85956  
536  102  -628.5487  -756.29565  983.3904  
537  107  487.3233  260.74936  552.6972  
538  112  112.36919  109.321625  156.77388  
539  107  -218.93945  -317.66403  385.80426  
540  108  42.812504  7.9414597  43.54282  
541  105  66.5614  -76.86974  101.682724  
542  90  203.08488  67.24395  213.92807  
543  99  -57.159546  38.37107  68.844406  
544  115  260.99008  -13.434372  261.3356  
545  99  185.41873  -17.659325  186.25777  
546  103  -278.32666  -335.62143  436.01315  
547  89  128.21548  97.28317  160.9448  
548  90  231.8825  54.361618  238.16943  
549  111  -205.6837  -553.815  590.7765  
550  109  52.826874  46.315804  70.25548  
551  115  -88.93965  239.36633  255.35564  
552  89  67.114555  212.54166  222.88634  
553  99  -318.6007  -432.92856  537.5254  
554  105  151.96613  4.6144257  152.03616  
555  108  -101.13383  81.93734  130.16058  
556  105  104.73839  -195.93687  222.17422  
557  118  144.53285  21.257568  146.08775  
558  83  -263.0959  108.137215  284.45227  
559  100  -86.69206  131.60475  157.59227  
560  127  -84.93416  222.97656  238.60503  
561  90  80.60916  -56.351437  98.35304  
562  114  -129.71521  7.3056183  129.92078  
563  102  109.431305  144.43637  181.21004  
564  97  -4.939541  99.08532  99.20837  
565  93  24.498047  255.97168  257.14133  
566  110  312.7076  -10.736931  312.89188  
567  97  380.40057  -93.46132  391.71368  
568  97  156.03874  -47.830368  163.20488  
569  124  -73.365875  -12.713409  74.45927  
570  96  -219.95796  146.13495  264.0775  
571  100  -173.30713  -11.16066  173.66612  
572  113  -41.87224  -160.75914  166.1228  
573  104  66.123505  57.0458  87.33007  
574  97  181.82455  -182.09013  257.3266  
575  95  117.07941  29.576569  120.75745  
576  97  16.201172  89.10803  90.56886  
577  84  -108.79483  -75.60486  132.4855  
578  118  -14.511278  311.01178  311.35013  
579  94  -11.323067  -146.39879  146.83601  
580  103  -152.99336  173.13235  231.04498  
581  115  156.51154  379.58984  410.5902  
582  94  -244.222  74.723335  255.39766  
583  108  67.59062  179.00882  191.34431  
584  102  -31.028547  -581.4229  582.25024  
585  102  9.205321  -162.34183  162.6026  
586  104  -61.082615  -81.00076  101.45052  
587  101  -218.90419  90.52891  236.88506  
588  91  -170.16878  -84.90807  190.17569  
589  95  -157.87755  -43.05372  163.64273  
590  88  457.73206  -76.55662  464.09003  
591  99  147.53986  -48.10199  155.18315  
592  103  105.14983  -27.199394  108.61075  
593  108  -311.48663  -18.283485  312.02277  
594  109  -15.191969  194.23907  194.83228  
595  105  26.446169  -301.1319  302.29095  
596  106  65.6791  -324.92453  331.49615  
597  105  -118.74738  -5.61557  118.88009  
598  102  87.43628  21.525566  90.04695  
599  106  289.1244  -37.830734  291.5889  
600  92  -133.78606  -92.44651  162.61938  
601  97  98.36738  -222.51993  243.29254  
602  98  -331.26932  -46.71685  334.54718  
603  108  161.55522  -30.626251  164.43253  
604  96  -307.86218  131.01782  334.5815  
605  112  108.071465  -60.299088  123.75549  
606  107  3.3970857  108.009544  108.06295  
607  97  -84.92259  69.7038  109.86567  
608  112  -105.68595  -76.92616  130.71785  
609  107  -415.12784  117.46886  431.42795  
610  101  -63.953796  125.07386  140.47618  
611  110  -168.32474  205.3587  265.52856  
612  93  203.77951  -16.544853  204.45004  
613  97  -149.83914  -114.78279  188.75078  
614  111  397.81778  112.54681  413.4317  
615  112  -18.083595  -143.9335  145.06505  
616  84  103.02996  -144.25404  177.26929  
617  122  -2.5182495  29.025032  29.134071  
618  100  469.36844  -86.434814  477.26065  
619  108  -65.346306  -269.82776  277.62772  
620  105  127.94606  259.83862  289.63132  
621  109  -172.6533  37.873573  176.75851  
622  86  213.13284  2.3586273  213.14589  
623  93  23.67544  -225.73871  226.97685  
624  92  143.90363  -70.11721  160.0771  
625  94  0.9339752  133.51141  133.51468  
626  109  -218.95187  -303.4725  374.21317  
627  105  -6.3327713  135.64694  135.7947  
628  109  387.28384  -121.60218  405.92593  
629  90  -240.72334  87.39077  256.09543  
630  97  -74.40797  304.4355  313.39673  
631  97  -78.0679  422.52136  429.673  
632  119  -186.49686  63.104546  196.88388  
633  102  135.80136  -28.439209  138.74725  
634  89  -28.76127  69.12744  74.87198  
635  99  -162.21672  135.93465  211.64236  
636  106  -180.54384  21.929138  181.87074  
637  119  194.47913  -105.09593  221.05946  
638  99  1.9413376  -314.3579  314.3639  
639  108  -132.45427  -455.52277  474.38922  
640  95  -156.0039  147.95425  215.00623  
641  99  -48.824303  -211.92477  217.47626  
642  102  -71.17165  282.42633  291.25598  
643  99  269.0434  -155.03406  310.51556  
644  102  120.08178  106.07634  160.22429  
645  101  -73.75618  -122.62922  143.10101  
646  107  -97.921036  -109.330635  146.77097  
647  110  -147.13902  139.45074  202.72247  
648  111  -48.833336  -34.625084  59.863102  
649  105  54.675804  37.96927  66.566574  
650  117  52.644688  70.70237  88.14924  
651  115  -182.53345  -100.57736  208.40889  
652  100  -45.21448  55.677956  71.72436  
653  92  291.89163  69.04902  299.94748  
654  96  142.80467  -0.66082  142.8062  
655  122  40.442055  -180.67752  185.14839  
656  90  11.659451  -365.79077  365.97653  
657  98  126.63496  376.96725  397.6691  
658  96  -3.931404  229.66095  229.6946  
659  106  4.7692184  87.76098  87.89047  
660  100  -59.27934  146.96912  158.47385  
661  95  19.686893  -219.914  220.79344  
662  109  156.18506  -242.39996  288.36005  
663  102  303.27435  435.70233  530.85956  
664  100  -84.29805  -126.79999  152.26424  
665  108  -216.0734  -592.1309  630.32275  
666  127  -159.47876  295.37653  335.67957  
667  103  -212.17876  350.25067  409.50623  
668  92  248.96817  71.91395  259.1462  
669  114  130.85745  76.29041  151.47243  
670  97  -116.77741  -81.8142  142.58516  
671  90  187.61714  2.7906342  187.6379  
672  111  333.37695  -175.95377  376.96143  
673  109  49.721527  -26.965225  56.562828  
674  100  102.37421  -42.04171  110.67061  
675  104  -99.29515  -92.01696  135.37595  
676  95  145.11188  114.758224  185.00516  
677  106  -170.58252  -73.49455  185.74133  
678  104  -98.27267  49.66272  110.1086  
679  106  16.839798  95.11428  96.593506  
680  99  179.47943  -178.59247  253.19583  
681  108  324.58527  -116.43513  344.83725  
682  91  -191.6289  -57.27484  200.00511  
683  106  -148.5188  -106.43442  182.71869  
684  91  50.638847  -84.339455  98.37396  
685  109  -290.71173  55.473343  295.9571  
686  100  254.70586  -86.38513  268.95627  
687  99  76.03175  139.49158  158.86702  
688  112  215.8544  -259.8537  337.81216  
689  109  219.36536  47.424377  224.43314  
690  109  -161.931  -56.17784  171.39894  
691  97  235.26538  87.45906  250.99579  
692  104  -10.993301  55.755623  56.829063  
693  108  143.92899  122.612305  189.07492  
694  110  106.45093  119.54424  160.0707  
695  106  161.79439  138.65721  213.08037  
696  100  137.26022  -203.04575  245.08763  
697  113  -286.6231  -280.36893  400.9483  
698  107  -64.63928  -120.786705  136.99512  
699  107  18.499386  -12.438087  22.292  
700  101  0.26605988  58.34349  58.344097  
701  107  -242.55215  125.88958  273.27594  
702  88  152.23657  141.52206  207.85684  
703  90  91.28266  -56.588066  107.39988  
704  94  -164.56561  228.02538  281.20706  
705  109  188.99939  43.871338  194.0244  
706  98  -93.998436  140.29083  168.87044  
707  111  169.09131  264.5109  313.9393  
708  106  -114.01775  67.360535  132.42918  
709  106  -10.453934  157.28947  157.63649  
710  98  28.74823  -221.55693  223.41426  
711  111  -81.39992  51.528625  96.33871  
712  102  -75.34379  -33.23269  82.34742  
713  96  -19.053894  270.32352  270.9942  
714  97  42.643875  78.94136  89.72312  
715  93  -19.286125  -91.44719  93.45878  
716  94  89.53736  91.19846  127.80493  
717  107  57.031204  -262.78888  268.90622  
718  114  -153.87477  -31.031212  156.97255  
719  98  -300.75937  -295.69537  421.7724  
720  115  57.372093  -148.74847  159.42918  
721  105  285.05908  -148.89355  321.6022  
722  106  37.599968  -79.37452  87.82979  
723  94  213.10385  -108.39337  239.08655  
724  98  -289.82147  83.60918  301.64047  
725  107  -170.19202  23.893593  171.86107  
726  93  545.96454  165.59494  570.52515  
727  92  235.16412  -66.93152  244.50356  
728  104  123.25401  29.49131  126.73314  
729  97  424.57275  -492.73004  650.419  
730  104  191.45471  163.66504  251.87526  
731  98  158.6642  154.41437  221.40038  
732  107  -41.765274  163.00766  168.2731  
733  102  -75.135994  -104.43033  128.65112  
734  111  -86.30274  -143.55511  167.49995  
735  124  -96.74039  89.28075  131.64252  
736  108  -174.42958  -166.51125  241.14658  
737  99  -47.14821  -249.17314  253.59457  
738  100  181.00543  54.28314  188.96991  
739  112  -176.73138  8.193497  176.92122  
740  108  22.260162  -49.036522  53.852535  
741  88  407.5738  140.33727  431.05792  
742  103  1.0650177  8.805828  8.869998  
743  109  -42.13137  251.87267  255.37207  
744  105  -97.51347  32.479515  102.780334  
745  106  55.3574  3.9299164  55.49672  
746  90  317.47107  -208.00056  379.542  
747  103  -33.80832  52.184845  62.17926  
748  98  354.9354  48.49337  358.23282  
749  107  153.62076  165.23831  225.61702  
750  108  -12.575676  51.362812  52.87992  
751  102  -108.21559  12.328827  108.91563  
752  100  375.96912  267.9598  461.6874  
753  96  85.65746  85.598366  121.09617  
754  114  -82.198715  113.20325  139.89856  
755  114  82.033875  194.85326  211.41748  
756  112  -175.26416  -52.999805  183.10245  
757  124  384.891  127.06689  405.32343  
758  112  135.68816  -42.379944  142.15251  
759  111  -20.908623  28.3964  35.263664  
760  114  301.9574  -98.733505  317.68942  
761  100  142.05434  -355.82056  383.12885  
762  95  234.06564  -49.95539  239.33714  
763  100  -208.45192  -98.16098  230.40785  
764  109  482.11646  282.14093  558.6052  
765  97  -269.57507  358.5727  448.6035  
766  107  194.51855  -251.23555  317.73694  
767  94  -105.799706  355.9691  371.35907  
768  111  -407.2784  -408.7149  576.9953  
769  117  12.882141  175.93558  176.40657  
770  85  -241.77151  92.35209  258.80954  
771  94  138.13686  230.82925  269.00546  
772  93  -69.85706  -193.7727  205.98026  
773  100  20.109673  -9.064329  22.058126  
774  85  -143.95393  -407.73932  432.405  
775  87  42.21273  -106.73154  114.776024  
776  101  -35.57348  -51.0965  62.260136  
777  92  -35.9142  -266.66473  269.0723  
778  117  -17.194008  -125.97155  127.13955  
779  92  1.8205261  52.706856  52.738285  
780  94  65.52147  -33.3951  73.541115  
781  93  55.044052  260.76636  266.51254  
782  89  -43.008186  -169.9039  175.26277  
783  101  182.68478  -74.09762  197.14001  
784  106  65.17015  149.91444  163.46709  
785  103  44.94143  303.41077  306.7211  
786  95  159.7254  153.59604  221.5941  
787  131  89.48324  242.15807  258.16232  
788  90  190.43788  293.41562  349.79895  
789  102  127.218704  15.651433  128.17787  
790  99  -93.62475  41.09686  102.247475  
791  93  -90.55169  141.78012  168.22964  
792  99  -193.38431  -50.258427  199.80841  
793  91  -50.085648  223.58328  229.12454  
794  106  146.16484  -114.71308  185.80434  
795  87  -152.08258  -80.974174  172.29605  
796  104  -76.97748  143.76202  163.07376  
797  92  -84.14304  -314.83392  325.88412  
798  107  -270.88675  20.129526  271.63364  
799  112  48.600433  190.93114  197.01955  
