n v(n)    Re(T)       Im(T)        Mod(T) 
   
0  97  81323.0  0.0  81323.0  
1  108  -286.93695  203.49461  351.77106  
2  101  -225.95764  249.15067  336.35236  
3  114  -63.829796  -23.34323  67.964325  
4  96  -80.72925  -38.81329  89.57501  
5  105  -278.1945  212.87231  350.2953  
6  94  89.57997  24.520565  92.87534  
7  90  -116.25224  63.929203  132.67075  
8  89  -103.588  -230.91452  253.08495  
9  113  -132.25351  55.300915  143.34985  
10  85  249.40533  -279.01688  374.23715  
11  90  31.950142  232.72473  234.90767  
12  98  -140.13885  -151.40659  206.30766  
13  94  -14.525162  -253.5551  253.9708  
14  109  -57.261383  1.2210407  57.2744  
15  107  -42.622154  -21.170902  47.590496  
16  103  236.61006  -10.171534  236.8286  
17  88  169.2044  146.39865  223.74695  
18  104  293.5816  164.02673  336.2959  
19  96  -137.68202  80.3199  159.3977  
20  112  -182.31201  450.0591  485.58304  
21  97  120.07526  -340.3365  360.8975  
22  90  38.608635  155.43956  160.16267  
23  118  -76.23352  -232.06114  244.26201  
24  92  128.0137  75.02165  148.37708  
25  88  101.9382  -113.76807  152.75658  
26  120  -357.0464  -233.99303  426.88974  
27  98  120.115585  232.82748  261.98547  
28  104  -110.5483  57.268764  124.501564  
29  105  -122.5068  -8.912518  122.83057  
30  97  -15.628822  -148.95361  149.77129  
31  88  28.465828  386.61685  387.66336  
32  93  250.16144  345.1041  426.23654  
33  87  -53.672523  81.22653  97.35754  
34  81  297.07715  -169.19772  341.88113  
35  108  209.77895  -201.19249  290.66412  
36  123  -75.19288  268.52963  278.8586  
37  102  163.0911  -165.15033  232.10631  
38  98  -49.003426  57.304253  75.39969  
39  93  16.503807  67.32291  69.3163  
40  87  25.21608  -160.65877  162.62563  
41  114  -1.2397003  -235.92973  235.93298  
42  115  508.96143  -63.785336  512.9428  
43  101  189.61984  -79.951035  205.78593  
44  96  -210.4075  -174.81522  273.55377  
45  114  64.04084  151.87314  164.82317  
46  102  161.98187  300.9124  341.74026  
47  94  57.414936  58.455814  81.9363  
48  99  6.0445786  56.734314  57.055405  
49  103  -10.198029  -72.81438  73.525055  
50  106  -54.70543  92.25749  107.2573  
51  101  -161.80458  -180.96269  242.75136  
52  88  63.365093  65.64937  91.2413  
53  110  49.476303  -138.63364  147.19778  
54  83  375.9107  299.5895  480.68985  
55  97  -349.42017  -131.55078  373.3632  
56  100  -107.29657  111.65988  154.85632  
57  99  238.53325  310.95688  391.9085  
58  88  -11.676643  121.70805  122.2669  
59  93  80.2116  -375.67926  384.14685  
60  102  196.57933  -228.89607  301.7231  
61  99  -49.82891  -82.43049  96.32085  
62  93  335.23624  194.71167  387.68024  
63  94  -138.50385  366.67102  391.95786  
64  97  -16.074234  -10.970119  19.460846  
65  99  50.865  -32.26  60.232513  
66  98  -184.50314  -165.75371  248.02359  
67  117  -35.826065  51.50621  62.740707  
68  94  217.79013  33.091827  220.28983  
69  99  -214.40076  118.121414  244.78633  
70  111  -181.41309  -33.610718  184.50037  
71  100  -329.63293  -119.74971  350.7105  
72  112  -81.26145  -149.83894  170.45566  
73  104  -157.62572  -527.16364  550.22485  
74  100  -261.67188  -29.760742  263.35883  
75  95  180.09802  -33.553207  183.19693  
76  97  68.41643  88.1078  111.55175  
77  112  -357.30823  44.674786  360.09027  
78  103  31.92234  -186.33572  189.05035  
79  105  -58.090744  -161.6848  171.8037  
80  97  -100.86219  -0.45991516  100.86324  
81  108  -49.889412  -27.53897  56.985508  
82  89  -162.99539  53.098583  171.42624  
83  109  146.49475  268.8538  306.1749  
84  104  120.09022  -352.89957  372.77307  
85  97  14.527824  12.047424  18.87321  
86  109  -170.647  102.774765  199.20605  
87  88  -75.27066  9.689674  75.89178  
88  101  154.83197  -156.15852  219.90549  
89  93  106.2966  -126.14359  164.95808  
90  105  -77.467354  -111.91024  136.10692  
91  84  117.39237  296.81927  319.1906  
92  105  26.863773  177.03839  179.06494  
93  109  216.677  -51.609657  222.73859  
94  94  -163.49023  -450.78964  479.52097  
95  109  -35.197746  5.4049683  35.61032  
96  107  -186.34253  -70.046974  199.07315  
97  119  -29.463501  29.822563  41.922348  
98  105  -216.78336  -70.77375  228.04373  
99  90  80.63876  32.077965  86.78483  
100  103  -304.7541  -45.04207  308.06467  
101  105  -362.68973  -78.901596  371.17288  
102  112  -33.432854  29.982376  44.90767  
103  90  -160.64188  -168.09558  232.51224  
104  102  34.91567  -216.27336  219.07367  
105  112  -194.98267  87.92533  213.8904  
106  91  49.245728  80.979965  94.778145  
107  94  -111.96707  18.126732  113.42488  
108  99  69.99429  -100.00587  122.06709  
109  89  210.53249  -4.2681046  210.57573  
110  91  386.54865  -86.9773  396.2132  
111  110  158.02051  -155.2626  221.5332  
112  104  163.01389  95.81644  189.08812  
113  102  197.59268  425.79593  469.40924  
114  105  21.933662  -236.19664  237.21286  
115  98  121.140945  146.5631  190.14696  
116  90  -13.820457  -249.80269  250.18471  
117  103  -232.31192  -194.49896  302.98297  
118  118  -121.871086  -213.61716  245.93668  
119  86  -43.656857  -113.260544  121.38316  
120  116  -180.17123  -281.53418  334.25015  
121  87  87.65807  47.48365  99.6927  
122  100  199.31506  -186.65073  273.0659  
123  107  -166.32103  101.44502  194.81729  
124  115  -222.78455  -258.91257  341.56796  
125  102  138.32132  13.717682  138.99986  
126  91  -178.48032  -6.6821594  178.60536  
127  100  -187.18456  -375.7284  419.77362  
128  90  168.38567  82.66778  187.58383  
129  103  82.6024  145.46071  167.27814  
130  91  152.7316  265.7588  306.52026  
131  92  41.10551  -49.384926  64.25367  
132  106  -66.74699  -49.28627  82.971664  
133  96  -82.60724  143.36255  165.45929  
134  96  169.62202  -14.900566  170.27524  
135  115  -151.84326  -62.12774  164.06168  
136  110  154.6275  -17.969383  155.66812  
137  105  -150.42526  -453.15616  477.4707  
138  110  -281.17126  -121.20776  306.18393  
139  106  52.18486  -20.72409  56.149334  
140  101  -143.03546  240.68883  279.9826  
141  108  -181.0019  -38.376724  185.02557  
142  101  -139.85487  105.03219  174.90324  
143  80  210.64473  -216.90186  302.35345  
144  105  -185.7974  -14.582657  186.36879  
145  95  -27.509499  -221.4937  223.1955  
146  110  -374.31357  -7.774063  374.3943  
147  118  2.7241402  -9.93763  10.304243  
148  104  267.29495  -105.981155  287.53888  
149  96  -46.43552  121.73187  130.28778  
150  103  184.04285  -143.14581  233.15765  
151  100  -196.94156  113.888275  227.50058  
152  105  117.57622  187.62701  221.42282  
153  110  32.75999  175.88094  178.9059  
154  106  217.07405  -97.03241  237.77391  
155  108  114.72232  249.46669  274.5812  
156  94  203.97348  72.33464  216.4197  
157  93  33.96641  -45.645485  56.89664  
158  97  474.86237  -53.18827  477.83182  
159  85  -74.586136  177.01814  192.08986  
160  84  239.01067  -297.6901  381.76627  
161  92  -284.61682  305.52365  417.5541  
162  118  -22.66304  -165.67079  167.21371  
163  99  77.09929  341.06378  349.66956  
164  97  -212.08678  -85.273224  228.58768  
165  107  -248.75583  -121.85107  276.99664  
166  112  75.94445  -185.47849  200.42412  
167  100  -38.61155  115.27292  121.567665  
168  103  -54.494835  96.25493  110.61057  
169  83  285.48273  -209.0246  353.82434  
170  98  94.04134  -160.61203  186.11824  
171  110  126.13867  476.72818  493.13358  
172  107  31.65635  186.49219  189.15988  
173  106  198.61588  -176.03047  265.3959  
174  94  292.90417  433.14374  522.88275  
175  95  -62.226982  -173.50885  184.32991  
176  106  44.533592  -0.5001602  44.5364  
177  90  79.32182  40.02844  88.849464  
178  98  129.72414  -229.10219  263.27963  
179  98  13.724445  -39.850998  42.1481  
180  101  -17.800615  46.7611  50.03461  
181  99  104.33251  130.25221  166.88593  
182  91  159.32501  -153.97607  221.56961  
183  103  38.061382  -107.45634  113.997955  
184  96  -109.172714  4.789253  109.27771  
185  93  -515.8248  -17.439247  516.1195  
186  88  -81.70138  -98.11513  127.678085  
187  95  -117.628296  -66.051605  134.90453  
188  103  78.64809  -28.282326  83.57877  
189  105  -89.54983  -57.53119  106.43781  
190  116  -168.5735  -26.406403  170.6292  
191  113  98.93308  -333.5677  347.92984  
192  108  -27.264683  166.95587  169.16745  
193  91  66.62155  -128.48648  144.7315  
194  108  163.9324  -294.2384  336.8235  
195  108  -220.04848  172.00327  279.29636  
196  94  419.52432  188.86224  460.07565  
197  97  35.706894  -55.767128  66.218994  
198  106  253.55626  -13.579475  253.91963  
199  101  48.13805  45.329636  66.12146  
200  107  46.037727  -185.03012  190.6715  
201  88  79.72064  72.65302  107.86029  
202  117  141.93217  -261.33087  297.38623  
203  95  -274.28864  137.80832  306.96155  
204  97  285.69006  129.2224  313.55582  
205  104  -117.93867  348.5658  367.97778  
206  94  -10.990923  -27.423141  29.543682  
207  90  191.78964  246.80338  312.56226  
208  108  -157.02621  -226.3375  275.47394  
209  100  102.32088  -123.901566  160.68964  
210  106  115.67571  0.14867401  115.67581  
211  105  51.699135  181.26907  188.49742  
212  105  96.70513  50.356842  109.0307  
213  89  292.07602  159.54984  332.81308  
214  90  68.752686  163.0601  176.96194  
215  87  -93.39182  -102.7538  138.85379  
216  104  11.533264  -269.1521  269.39908  
217  98  -40.41347  371.19193  373.38544  
218  89  -124.07299  -108.64177  164.91556  
219  110  -154.9783  -62.473045  167.09624  
220  104  -474.2359  -326.92526  576.0033  
221  101  -176.89044  261.06717  315.35107  
222  100  88.86831  -189.15022  208.98656  
223  122  -50.017365  -94.91454  107.28703  
224  105  186.43709  -156.02884  243.1127  
225  112  71.46898  285.1298  293.95035  
226  106  -61.70145  272.02026  278.93027  
227  100  2.3234062  -204.32137  204.33456  
228  111  -108.44713  315.08002  333.22095  
229  100  -214.77869  -78.21289  228.57634  
230  90  -21.557722  -248.82568  249.7578  
231  112  104.76453  -11.204094  105.36194  
232  97  77.74431  -219.25502  232.6305  
233  107  -240.99495  115.99576  267.4576  
234  110  -175.93382  -58.161064  185.29819  
235  106  -273.3462  29.77349  274.96292  
236  108  -364.17218  -8.934547  364.28177  
237  93  246.79639  325.00525  408.0893  
238  100  0.4593773  -43.982597  43.984997  
239  97  169.4653  58.579765  179.30443  
240  108  -152.10414  -5.1184006  152.19023  
241  101  209.43033  112.43204  237.70154  
242  114  83.21775  256.7032  269.855  
243  97  -5.174095  -21.353104  21.971033  
244  94  181.81737  93.47491  204.43854  
245  102  293.95297  41.46807  296.86353  
246  104  -31.864716  382.11743  383.44373  
247  102  -158.80843  -19.875053  160.04729  
248  104  49.03161  36.028175  60.845116  
249  102  -28.909908  152.23743  154.95811  
250  100  -119.0869  44.83081  127.24579  
251  99  50.912926  -176.07666  183.2897  
252  105  180.61182  -218.72372  283.65594  
253  95  158.26483  -232.807  281.50818  
254  95  156.95291  -220.14256  270.3645  
255  98  46.98762  2.4795685  47.053  
256  120  -304.42728  29.486008  305.8519  
257  108  -40.18897  -18.350105  44.18008  
258  109  -181.68611  232.98657  295.4532  
259  96  2.190197  -27.226486  27.314438  
260  109  116.69507  -111.254524  161.2306  
261  108  190.26303  52.108696  197.2697  
262  106  11.453369  -12.409645  16.887243  
263  112  129.81125  193.9089  233.34872  
264  95  -373.65143  649.4581  749.2738  
265  121  -283.03308  368.4804  464.63483  
266  105  50.6315  78.2545  93.20577  
267  108  265.00647  -44.21736  268.67007  
268  96  212.98195  -58.075645  220.758  
269  114  15.553402  104.59784  105.74789  
270  108  163.87021  363.5391  398.76575  
271  100  -325.0112  259.99677  416.2098  
272  83  207.71938  -150.77896  256.67416  
273  96  245.23044  160.83682  293.26855  
274  96  -60.2676  -401.41418  405.9132  
275  114  -0.5478821  -6.530426  6.5533686  
276  103  -35.185074  -24.15274  42.677208  
277  107  233.31111  28.03669  234.98964  
278  109  256.27365  -403.34814  477.87646  
279  92  -112.64368  59.71049  127.490944  
280  106  83.99028  -99.85157  130.47874  
281  103  -14.902374  -186.82193  187.41536  
282  108  -28.576588  -53.962296  61.06186  
283  110  -133.17921  101.284546  167.31784  
284  94  151.13306  -163.85559  222.91222  
285  106  73.14758  -59.700943  94.41807  
286  99  200.78162  -328.11005  384.668  
287  105  330.39667  226.74918  400.7208  
288  95  133.6232  109.36759  172.67435  
289  108  23.551765  -229.4205  230.62622  
290  100  -100.66084  39.744648  108.223114  
291  86  -18.586697  -112.5965  114.12027  
292  87  14.366905  -75.89845  77.246254  
293  102  -286.5821  169.21634  332.81146  
294  109  -114.7941  85.96665  143.4153  
295  94  -268.29117  76.36464  278.94748  
296  86  99.32169  20.080673  101.3313  
297  124  -67.521225  233.08795  242.67078  
298  109  -398.40866  40.50326  400.46222  
299  113  -27.362022  144.82568  147.38779  
300  95  -269.21027  -115.292625  292.85928  
301  93  68.12391  -112.09205  131.16971  
302  98  -65.03381  -317.88623  324.47043  
303  101  -275.78592  358.2371  452.097  
304  99  -130.1608  -256.5326  287.6644  
305  108  324.72305  37.998188  326.93872  
306  104  -66.26714  -159.96933  173.15172  
307  104  -216.83585  -35.19548  219.67365  
308  110  173.26682  -50.709618  180.53491  
309  100  -18.902332  -22.815147  29.628181  
310  113  79.40648  -185.9138  202.16164  
311  108  344.20844  3.6214142  344.22748  
312  92  -2.0479202  -70.89699  70.92656  
313  90  450.05505  30.234657  451.0695  
314  101  -129.58786  109.87578  169.89908  
315  96  154.27612  55.621696  163.99664  
316  92  -76.03517  -245.28656  256.80118  
317  113  81.58824  141.85617  163.64539  
318  113  -89.01608  -55.965515  105.14752  
319  101  -8.20089  180.46936  180.6556  
320  105  257.03467  -160.30426  302.92618  
321  103  25.01577  -246.19334  247.46101  
322  117  38.474068  -19.330536  43.057213  
323  98  -47.2165  -73.75305  87.57231  
324  109  -198.14444  -151.39449  249.3622  
325  112  -97.53947  248.52171  266.9775  
326  106  -12.371521  -0.17213058  12.372719  
327  104  -160.68587  142.29611  214.63489  
328  102  43.314636  68.674286  81.19308  
329  94  192.92435  -104.056366  219.19746  
330  113  -215.0755  191.70819  288.11368  
331  93  -319.2656  142.72638  349.7161  
332  115  175.1336  164.10397  240.00394  
333  75  162.34338  240.37926  290.06476  
334  102  -4.933708  64.058044  64.24776  
335  99  119.42904  121.03137  170.03496  
336  103  -67.95455  209.54135  220.2848  
337  94  30.333  -36.811035  47.698463  
338  95  -111.167786  -116.70845  161.18045  
339  91  -201.76096  31.232147  204.16397  
340  105  116.26264  112.51274  161.79036  
341  96  -171.69698  -163.12704  236.83388  
342  97  -239.26996  180.2159  299.54614  
343  110  51.39466  52.654297  73.57912  
344  94  25.492836  280.22806  281.38522  
345  101  335.28925  168.53961  375.26587  
346  110  54.95272  1.9392853  54.986927  
347  103  251.6498  -128.34586  282.48944  
348  117  63.012444  -185.04955  195.48376  
349  93  -324.89035  9.328861  325.02426  
350  111  133.59668  -59.330704  146.17868  
351  100  -177.95374  281.11563  332.70636  
352  112  -82.506195  -87.1886  120.03801  
353  124  22.806755  268.9435  269.90878  
354  113  52.747253  -138.08304  147.81474  
355  102  -25.175682  -188.68637  190.3585  
356  104  99.292946  71.89375  122.58793  
357  102  -368.4664  -239.75714  439.60318  
358  105  -214.9689  -247.04953  327.48297  
359  87  113.98435  2.190918  114.0054  
360  99  180.2268  -45.82798  185.96211  
361  102  -177.89911  48.283276  184.33493  
362  94  105.77909  -293.60464  312.07837  
363  95  178.7037  207.87514  274.1297  
364  106  -323.5455  -1.530304  323.54913  
365  98  -71.10002  24.448225  75.18596  
366  95  216.60698  -90.71281  234.83482  
367  94  -20.909561  -180.49937  181.70645  
368  96  -204.47092  -241.93799  316.7686  
369  110  210.37376  -39.732513  214.09296  
370  89  -589.62616  -32.90857  590.54376  
371  108  312.5752  39.888374  315.11005  
372  77  -112.546974  174.91174  207.99265  
373  93  88.43984  -84.10235  122.0443  
374  89  -0.06620026  -51.28938  51.28942  
375  117  -100.040184  -65.403915  119.52285  
376  97  74.03037  -85.210686  112.877625  
377  103  -64.23866  264.96313  272.6391  
378  93  -232.85904  -237.08492  332.314  
379  95  -253.32782  82.0679  266.28955  
380  109  111.41343  42.68358  119.309845  
381  106  -130.53154  -161.20572  207.42653  
382  97  -218.55872  -198.45862  295.2181  
383  104  -220.48256  157.17316  270.7692  
384  91  19.74038  -38.062866  42.87732  
385  104  -323.12057  -113.92581  342.6164  
386  120  -20.894249  -78.23602  80.97806  
387  105  -287.25623  193.85794  346.5502  
388  103  -53.010048  -164.99863  173.30496  
389  96  -193.08066  -96.84931  216.0091  
390  103  3.264389  340.449  340.46466  
391  93  -114.02179  -273.7949  296.5883  
392  105  -94.88439  123.54408  155.77608  
393  102  411.06488  -298.4039  507.95593  
394  106  -142.67409  175.3356  226.0497  
395  110  42.79151  -151.56696  157.49176  
396  117  199.94371  -177.15799  267.13748  
397  96  -181.63437  -106.12428  210.36493  
398  109  -60.451004  206.40276  215.07306  
399  89  -288.06308  -133.1674  317.35452  
400  111  580.99963  0.6484833  581.0  
401  127  -288.61765  132.48982  317.5747  
402  93  -59.95479  -206.52928  215.05562  
403  97  -181.8565  105.67893  210.33266  
404  105  199.6688  177.55428  267.19498  
405  100  42.48063  151.24503  157.09763  
406  98  -142.17026  -175.8129  226.10297  
407  82  410.24658  299.08856  507.697  
408  102  -95.00001  -123.84108  156.08208  
409  113  -114.78797  273.2499  296.38116  
410  95  3.8954926  -340.58575  340.60803  
411  111  -193.82004  96.2233  216.39114  
412  124  -53.40854  164.7523  173.19295  
413  90  -286.90506  -194.54028  346.64166  
414  108  -21.09462  78.26912  81.06194  
415  102  -323.4178  113.093185  342.62097  
416  125  19.669334  37.933853  42.73008  
417  97  -220.17444  -157.79604  270.88074  
418  93  -218.87068  198.058  295.18018  
419  86  -130.61082  160.49551  206.92511  
420  107  111.44301  -42.889496  119.41128  
421  117  -253.10385  -82.6116  266.2447  
422  108  -233.10695  236.23984  331.88568  
423  98  -63.356697  -265.37604  272.8342  
424  102  74.207  85.15368  112.950554  
425  107  -99.88704  65.0809  119.218056  
426  99  0.23075867  51.10829  51.10881  
427  111  88.428215  83.93173  121.91835  
428  105  -112.0201  -175.38959  208.11058  
429  110  312.37286  -39.246998  314.82874  
430  116  -589.6775  31.63167  590.52527  
431  104  210.6399  40.135067  214.42944  
432  120  -204.91785  241.44579  316.68185  
433  84  -21.038841  180.31662  181.53986  
434  88  216.41269  90.47627  234.5643  
435  101  -71.322754  -25.099482  75.61031  
436  121  -323.19897  0.70246124  323.19974  
437  97  179.37096  -207.50139  274.2823  
438  113  105.02804  293.73657  311.94882  
439  91  -177.69489  -48.907764  184.30258  
440  109  180.16666  46.003696  185.9472  
441  107  113.57197  -2.0471153  113.590416  
442  114  -215.65189  246.42253  327.45963  
443  83  -368.69116  238.49051  439.10236  
444  110  99.83518  -71.90347  123.03322  
445  106  -25.37001  188.39575  190.09628  
446  95  52.698853  137.55658  147.30574  
447  85  23.192772  -269.3441  270.3408  
448  106  -82.489426  86.44745  119.48919  
449  100  -177.18953  -281.73288  332.8206  
450  88  133.7134  59.49283  146.35118  
451  97  -324.65292  -10.214832  324.8136  
452  102  63.23027  184.92049  195.43196  
453  97  251.77841  128.40366  282.63028  
454  101  55.1333  -2.5098038  55.1904  
455  108  335.5943  -168.40427  375.47772  
456  99  25.430893  -280.47595  281.6265  
457  88  51.319252  -52.740166  73.587975  
458  93  -238.38531  -181.33992  299.51917  
459  104  -171.82712  162.52124  236.51155  
460  118  116.53584  -112.66648  162.09361  
461  90  -201.58542  -31.902836  204.09427  
462  118  -111.117355  116.26503  160.82483  
463  96  30.574066  36.377453  47.51939  
464  97  -67.59691  -210.2906  220.88794  
465  103  119.877525  -120.99298  170.323  
466  102  -4.3736725  -64.45364  64.60187  
467  87  163.23938  -240.23885  290.45102  
468  103  175.15701  -163.8123  239.8217  
469  93  -319.2799  -143.47327  350.0346  
470  100  -214.36646  -191.91805  287.72473  
471  106  193.05487  104.60014  219.57089  
472  95  43.428062  -68.705215  81.279785  
473  102  -160.23007  -142.54843  214.46149  
474  106  -12.172722  -0.22315979  12.1747675  
475  100  -96.83809  -248.59369  266.78912  
476  100  -198.33015  151.43336  249.53339  
477  107  -46.78172  73.71164  87.303696  
478  100  38.66681  19.4958  43.303677  
479  103  25.400253  246.1673  247.47426  
480  105  256.78378  160.45508  302.79324  
481  99  -7.813545  -180.69981  180.86867  
482  102  -89.07588  55.64375  105.02733  
483  95  82.07673  -141.80054  163.84134  
484  76  -76.133865  244.8793  256.4415  
485  106  154.48315  -55.60708  164.18645  
486  105  -128.83102  -110.18821  169.52544  
487  110  450.36115  -29.057259  451.29755  
488  80  -2.0829163  70.881195  70.9118  
489  92  344.35904  -2.977684  344.37192  
490  107  78.64233  185.95834  201.90375  
491  109  -18.992424  22.637703  29.549582  
492  108  172.8931  50.748184  180.18713  
493  95  -217.0878  34.817963  219.86223  
494  114  -66.31984  159.41843  172.66313  
495  97  324.60495  -37.667183  326.7831  
496  112  -131.10147  255.81813  287.45523  
497  82  -275.0149  -359.08585  452.3006  
498  108  -65.47775  318.0881  324.75742  
499  105  67.78935  111.88443  130.81866  
500  110  -269.50732  114.21794  292.71136  
501  123  -27.236317  -145.34412  147.87402  
502  103  -397.6856  -42.099182  399.9077  
503  105  -66.82113  -233.5401  242.91159  
504  114  99.42886  -20.01891  101.42413  
505  109  -268.02652  -77.03392  278.8771  
506  112  -114.23146  -86.40195  143.22752  
507  107  -285.81195  -169.85085  332.47223  
508  95  14.834328  75.87816  77.31463  
509  105  -18.596848  112.62319  114.14826  
510  88  -100.33417  -39.852345  107.95904  
511  102  24.266762  228.80597  230.08922  
512  96  134.41696  -109.466225  173.3516  
513  91  331.18643  -225.85547  400.86798  
514  106  200.1836  328.6005  384.77493  
515  105  73.27677  59.356117  94.300766  
516  106  150.89513  164.01056  222.86499  
517  101  -132.9303  -101.75341  167.40437  
518  110  -28.428837  53.842888  60.887234  
519  105  -15.07259  186.41846  187.0268  
520  95  83.58653  100.443665  130.67378  
521  92  -112.17383  -60.143818  127.28019  
522  96  255.86794  403.63574  477.9019  
523  84  233.20734  -28.527908  234.94574  
524  103  -35.371555  23.595139  42.519142  
525  92  -0.39413834  5.9648438  5.9778514  
526  107  -60.768658  400.85757  405.43756  
527  97  245.82292  -160.95383  293.82825  
528  89  207.17337  150.58383  256.11774  
529  107  -324.08597  -261.33597  416.32703  
530  120  164.6584  -363.1792  398.76248  
531  85  15.960854  -104.77257  105.981316  
532  107  213.23557  58.291183  221.05942  
533  118  264.68546  44.199432  268.3505  
534  77  50.249233  -78.85713  93.506325  
535  113  -282.56146  -369.57712  465.21848  
536  106  -372.08627  -650.22614  749.161  
537  112  130.64145  -193.2995  233.30641  
538  97  11.681953  12.578255  17.166262  
539  90  190.53404  -51.630024  197.40538  
540  98  117.19415  111.69522  161.89594  
541  104  2.0692024  27.079765  27.158705  
542  110  -181.15631  -233.43262  295.47992  
543  93  -40.01423  18.474937  44.073368  
544  106  -303.97824  -30.040886  305.45905  
545  114  47.45069  -2.4443512  47.513607  
546  108  156.79901  220.46373  270.53687  
547  95  157.65297  233.20438  281.49377  
548  106  180.16287  218.58832  283.2658  
549  99  50.626972  175.5636  182.71745  
550  102  -119.053085  -45.80279  127.55991  
551  111  -28.49852  -152.71469  155.35103  
552  95  49.061115  -36.24913  60.999935  
553  94  -158.76517  19.177101  159.91917  
554  99  -30.591042  -382.47388  383.69528  
555  106  294.3525  -40.839924  297.17218  
556  110  182.16078  -93.20897  204.62273  
557  114  -4.9083176  21.245956  21.805555  
558  97  83.97949  -256.85925  270.23923  
559  96  209.51874  -111.966156  237.55951  
560  100  -152.17198  4.7603455  152.24641  
561  94  169.71436  -58.338127  179.46114  
562  107  0.15336227  44.144417  44.144684  
563  94  246.95381  -324.872  408.07843  
564  130  -364.657  8.56649  364.75763  
565  105  -273.2391  -30.221092  274.9053  
566  107  -175.86392  57.86087  185.13779  
567  90  -240.37036  -116.45737  267.09592  
568  118  77.81324  219.45462  232.84164  
569  103  105.322556  11.136383  105.909676  
570  113  -21.737526  248.64465  249.59303  
571  108  -214.73412  77.22788  228.19922  
572  111  -107.4935  -315.49878  333.30817  
573  96  2.214138  204.09576  204.10777  
574  119  -61.035336  -272.30698  279.06345  
575  112  72.299995  -284.68277  293.7202  
576  99  186.29478  156.508  243.31152  
577  98  -50.249878  94.842384  107.33186  
578  113  88.15057  189.01935  208.56375  
579  98  -176.5516  -261.5038  315.52292  
580  84  -474.60843  326.0237  575.79913  
581  89  -154.44118  61.924347  166.39322  
582  104  -123.992355  108.22532  164.58075  
583  98  -38.840965  -371.3769  373.4025  
584  99  11.521704  269.1276  269.3741  
585  88  -93.224754  102.22954  138.35365  
586  106  69.66434  -163.27933  177.51974  
587  102  292.71698  -159.15132  333.18518  
588  124  96.867584  -50.41686  109.202515  
589  106  52.33046  -181.19467  188.60007  
590  114  115.8486  0.252182  115.84888  
591  102  102.117676  123.949265  160.59714  
592  96  -157.22798  225.57947  274.9668  
593  116  192.0488  -246.85507  312.76218  
594  102  -10.95217  27.17685  29.300701  
595  97  -116.9164  -349.09662  368.15472  
596  91  286.16592  -128.45622  313.6749  
597  98  -273.87527  -138.14806  306.7451  
598  105  141.76016  261.52155  297.47177  
599  92  79.23916  -71.20653  106.53269  
600  101  46.075836  184.91638  190.57033  
601  95  48.620823  -45.26013  66.42638  
602  96  253.7517  14.172783  254.14719  
603  102  36.08047  55.300095  66.02955  
604  108  419.94513  -188.1789  460.17953  
605  87  -219.81082  -172.1915  279.2252  
606  100  163.53827  294.802  337.12457  
607  104  66.06605  128.41693  144.4148  
608  113  -26.948046  -166.9698  169.13046  
609  91  98.22282  333.72766  347.88196  
610  95  -168.65912  25.767944  170.6162  
611  106  -89.473724  57.234  106.21336  
612  97  78.85382  28.116814  83.71667  
613  108  -117.644554  65.73186  134.76245  
614  98  -82.06921  97.793594  127.667305  
615  105  -516.1705  16.30886  516.42804  
616  108  -108.29601  -5.1147995  108.41673  
617  114  38.746796  107.53942  114.306786  
618  100  159.71086  153.85385  221.7624  
619  104  104.79817  -130.40155  167.29382  
620  109  -17.232876  -46.923897  49.98824  
621  117  14.183813  39.774506  42.227856  
622  104  129.68742  229.10251  263.26184  
623  99  79.81468  -40.331074  89.42583  
624  103  44.817223  0.29040527  44.818165  
625  95  -62.022877  172.88007  183.66914  
626  100  294.2709  -432.82846  523.3888  
627  111  198.77798  174.96703  264.81342  
628  100  32.11888  -186.90018  189.63991  
629  99  127.43531  -476.25275  493.00754  
630  116  93.961174  161.01852  186.42873  
631  97  284.98105  209.41528  353.65088  
632  105  -54.532192  -96.77846  111.084785  
633  114  -38.265984  -115.242165  121.42916  
634  93  75.550995  185.58414  200.37321  
635  96  -249.07507  120.96199  276.89383  
636  94  -211.83249  84.236145  227.9665  
637  93  78.25853  -341.0752  349.9381  
638  113  -22.670256  165.39034  166.93683  
639  108  -283.51373  -306.1112  417.2339  
640  99  239.23561  298.23486  382.33194  
641  105  -73.76122  -177.38914  192.11357  
642  104  475.2106  54.17021  478.28812  
643  100  33.990772  45.1848  56.542362  
644  110  204.41655  -72.2346  216.80397  
645  104  115.36595  -249.50677  274.88712  
646  107  217.00519  97.384636  237.85503  
647  107  33.10722  -176.11957  179.20433  
648  108  117.998215  -187.48416  221.52628  
649  114  -196.58911  -114.08543  227.29443  
650  100  184.04901  143.57747  233.42778  
651  111  -45.86569  -121.91584  130.25795  
652  94  267.09128  106.60814  287.58136  
653  89  2.393631  9.8776245  10.16351  
654  104  -374.333  7.2728577  374.40366  
655  101  -27.756752  220.9997  222.73595  
656  109  -185.46338  14.144844  186.002  
657  105  210.30386  217.15225  302.2959  
658  100  -139.59258  -105.622314  175.04903  
659  105  -180.8159  37.79914  184.72456  
660  109  -142.19568  -240.95213  279.78122  
661  100  52.53461  21.112694  56.618294  
662  105  -281.27798  120.81528  306.12683  
663  106  -150.66766  452.74088  477.15308  
664  95  154.93457  17.912971  155.96664  
665  99  -151.40524  61.508797  163.4224  
666  107  169.88922  14.71624  170.5254  
667  99  -82.05713  -143.56357  165.35982  
668  116  -65.976  48.80008  82.06266  
669  116  41.7651  48.71113  64.16461  
670  102  153.6199  -265.9879  307.16223  
671  108  83.21359  -145.27634  167.42078  
672  107  168.59683  -82.05089  187.50264  
673  85  -188.08876  375.34442  419.83426  
674  97  -178.02489  6.1565475  178.13132  
675  98  138.52809  -13.464989  139.18095  
676  91  -223.1718  257.89484  341.05045  
677  91  -165.06305  -101.93843  194.00323  
678  101  199.34126  186.96548  273.30026  
679  90  87.93946  -47.324165  99.86454  
680  98  -180.27043  281.1643  333.99222  
681  102  -43.834583  112.7381  120.96011  
682  105  -121.96417  213.2636  245.67584  
683  108  -232.1601  193.74803  302.38486  
684  98  -13.43779  249.35435  249.71617  
685  99  122.2471  -146.84576  191.07076  
686  104  21.973572  235.32816  236.3518  
687  96  199.00311  -425.79587  470.00464  
688  76  163.84229  -95.24147  189.51315  
689  100  158.23328  155.48466  221.84059  
690  106  386.5679  87.40059  396.32513  
691  90  210.59155  4.6033096  210.64186  
692  108  69.66121  100.07355  121.93194  
693  127  -111.5954  -18.514442  113.12081  
694  110  49.513126  -80.91582  94.86264  
695  100  -194.46729  -88.31098  213.57985  
696  110  34.949615  216.6575  219.45831  
697  96  -160.87863  167.40381  232.17659  
698  91  -33.360428  -30.477333  45.186127  
699  103  -362.49658  77.91811  370.7762  
700  105  -304.10815  44.063927  307.2839  
701  96  81.30345  -32.111748  87.41519  
702  116  -216.49474  70.176834  227.58461  
703  98  -28.827171  -29.89412  41.529076  
704  93  -185.81735  69.53028  198.39998  
705  115  -34.19806  -5.617874  34.656425  
706  106  -163.55276  450.2474  479.03262  
707  111  217.29927  51.38922  223.29314  
708  118  27.697773  -177.52316  179.67091  
709  101  118.16605  -296.7129  319.37714  
710  102  -77.19733  111.96291  135.99677  
711  112  106.80284  125.95709  165.14247  
712  93  154.89682  156.16776  219.9577  
713  107  -74.69065  -10.579346  75.43617  
714  114  -170.05933  -103.11162  198.8773  
715  100  13.712929  -11.967659  18.200804  
716  91  120.04909  352.58676  372.46368  
717  89  147.49323  -269.18994  306.94867  
718  99  -162.56534  -53.59106  171.17094  
719  93  -49.36696  27.417027  56.46937  
720  107  -100.20525  0.07008362  100.20528  
721  111  -57.807503  161.66772  171.69205  
722  91  32.032967  186.05396  188.79138  
723  91  -356.49585  -45.981197  359.44897  
724  105  69.98372  -87.60881  112.1295  
725  119  180.62686  34.192074  183.8346  
726  99  -261.2641  29.338356  262.9062  
727  98  -158.09378  526.7171  549.9314  
728  107  -80.9935  149.24524  169.80603  
729  107  -328.74188  119.20253  349.68625  
730  95  -180.50012  32.6823  183.43509  
731  97  -212.96762  -119.05435  243.98595  
732  89  219.13889  -33.25725  221.64813  
733  104  -34.852013  -52.102657  62.684525  
734  101  -183.85164  165.10721  247.10689  
735  104  51.796307  31.801456  60.77985  
736  104  -15.126709  10.323971  18.313976  
737  98  -136.3844  -367.31723  391.81967  
738  103  336.59375  -193.89456  388.4462  
739  103  -49.01651  82.67996  96.11761  
740  108  197.00821  229.32724  302.32965  
741  97  80.39298  375.3251  383.83847  
742  105  -10.4646  -122.35564  122.802315  
743  112  240.00981  -310.8744  392.74368  
744  109  -106.48747  -111.819595  154.41245  
745  95  -348.4296  130.4517  372.0495  
746  101  377.90042  -299.1494  481.97418  
747  121  50.07399  138.3257  147.11017  
748  111  64.32155  -65.743805  91.97559  
749  111  -161.07121  180.50726  241.92314  
750  111  -53.289856  -92.71958  106.94264  
751  109  -8.988098  72.606064  73.16028  
752  84  7.743065  -57.527866  58.046623  
753  97  59.454216  -59.376816  84.026245  
754  105  163.82167  -300.81448  342.53012  
755  94  66.10307  -151.93259  165.68987  
756  107  -209.72232  174.73776  272.97754  
757  104  191.19815  80.256256  207.35912  
758  107  510.02972  65.02464  514.1581  
759  103  -0.7868271  235.5864  235.5877  
760  94  25.893646  160.2197  162.29858  
761  102  17.945335  -67.69963  70.037674  
762  100  -47.401077  -57.497807  74.51752  
763  121  164.22234  165.19592  232.9349  
764  114  -73.22088  -268.99365  278.78107  
765  82  210.73053  201.50497  291.5675  
766  92  297.94495  169.10184  342.5881  
767  95  -52.151016  -81.799416  97.00965  
768  93  252.21057  -345.0575  427.4048  
769  108  30.470642  -386.4531  387.6525  
770  98  -14.56073  148.9791  149.68896  
771  87  -121.07015  8.527826  121.37012  
772  122  -108.684875  -57.555523  122.9839  
773  94  122.313354  -232.5595  262.76315  
774  97  -355.58612  233.12463  425.1924  
775  96  103.471954  114.30225  154.17993  
776  93  130.58371  -75.33714  150.75739  
777  92  -74.596664  231.60333  243.3203  
778  97  41.352722  -155.69568  161.09373  
779  89  121.808495  340.06934  361.22635  
780  121  -178.51118  -450.5375  484.61353  
781  99  -134.40251  -81.20498  157.02956  
782  95  297.1275  -163.55928  339.17014  
783  101  172.75516  -145.90706  226.12654  
784  106  239.64932  10.809704  239.89299  
785  108  -39.370445  21.197788  44.714405  
786  91  -53.65438  -1.3421068  53.67116  
787  96  -11.099701  253.46257  253.70549  
788  102  -136.30153  150.84712  203.3051  
789  87  37.186157  -233.12872  236.07585  
790  100  253.68576  279.32327  377.33002  
791  89  -126.78  -55.691906  138.47295  
792  99  -97.77139  230.36688  250.25616  
793  98  -108.34511  -64.55077  126.11687  
794  103  97.91143  -24.857136  101.01745  
795  113  -267.94806  -213.70966  342.73602  
796  107  -68.32432  38.571136  78.45983  
797  103  -47.342026  22.756447  52.52736  
798  84  -200.67558  -249.79668  320.42014  
799  104  -236.94095  -203.91716  312.60712  
